* Measurement data measured by REW V5.20.13
* Source: default [default], no input selected, R, volume: no control
* Format: 256k Log Swept Sine, 1 sweep at 0.0 dBFS, at 48000 Hz
* Dated: Aug 14, 2023 7:54:12 PM
* Sense Resistor: 99.8
* Lead resistance: 0.000
* Input resistance: 20000.000
* Calibration factor: 1.0000
* Note: 
* Measurement: CHR70 impedance vented box
* Smoothing: 1/24 octave
* Frequency Step: 1/96 octave
* Start Frequency: 40.000 Hz
*
* Freq(Hz)	Z(Ohms)	Phase(degrees)
40.000000	18.306023	-28.9221
40.289856	18.043243	-29.1489
40.581814	17.139790	-29.7720
40.875885	16.075407	-30.2877
41.172089	15.000086	-30.5011
41.470440	13.996661	-30.3236
41.770950	13.098226	-29.7539
42.073643	12.304321	-28.8458
42.378525	11.607395	-27.6555
42.685616	10.999315	-26.2224
42.994934	10.471985	-24.5874
43.306492	10.017030	-22.7947
43.620308	9.625268	-20.8871
43.936401	9.286132	-18.8908
44.254780	8.991100	-16.8079
44.575470	8.737638	-14.6432
44.898483	8.525738	-12.4240
45.223835	8.354200	-10.1916
45.551544	8.219489	-7.9861
45.881630	8.116417	-5.8346
46.214108	8.039824	-3.7479
46.548996	7.985707	-1.7268
46.886307	7.951103	0.2307
47.226067	7.933410	2.1275
47.568283	7.930199	3.9690
47.912983	7.939409	5.7635
48.260181	7.959783	7.5227
48.609894	7.991591	9.2586
48.962143	8.036729	10.9737
49.316940	8.097496	12.6537
49.674313	8.174650	14.2679
50.034271	8.265856	15.7802
50.396843	8.365677	17.1671
50.762039	8.467720	18.4319
51.129883	8.567843	19.6028
51.500389	8.665934	20.7154
51.873581	8.764982	21.7926
52.249481	8.868500	22.8383
52.628101	8.978372	23.8450
53.009464	9.094729	24.8091
53.393593	9.217333	25.7361
53.780506	9.346638	26.6366
54.170223	9.483569	27.5182
54.562763	9.628847	28.3844
54.958145	9.782805	29.2340
55.356396	9.945285	30.0616
55.757530	10.115144	30.8581
56.161572	10.290447	31.6178
56.568542	10.469955	32.3424
56.978462	10.654219	33.0363
57.391350	10.844760	33.6998
57.807232	11.042740	34.3311
58.226128	11.248695	34.9308
58.648056	11.462592	35.5010
59.073048	11.683552	36.0454
59.501114	11.910656	36.5712
59.932281	12.144739	37.0848
60.366577	12.388135	37.5814
60.804020	12.642323	38.0450
61.244629	12.907092	38.4632
61.688435	13.182434	38.8384
62.135452	13.470970	39.1853
62.585712	13.777691	39.5167
63.039234	14.106340	39.8316
63.496040	14.456603	40.1214
63.956161	14.825324	40.3803
64.419617	15.210155	40.6076
64.886421	15.610739	40.7985
65.356621	16.027168	40.9444
65.830215	16.460203	41.0414
66.307251	16.913435	41.0917
66.787743	17.392126	41.0930
67.271713	17.899807	41.0345
67.759193	18.436506	40.9058
68.250206	19.001886	40.7067
68.744774	19.598284	40.4408
69.242928	20.228556	40.1036
69.744690	20.891735	39.6842
70.250084	21.582800	39.1755
70.759148	22.297655	38.5808
71.271896	23.038404	37.9063
71.788361	23.813734	37.1483
72.308571	24.632393	36.2896
72.832550	25.497101	35.3090
73.360321	26.402962	34.1952
73.891922	27.341831	32.9491
74.427376	28.305841	31.5701
74.966705	29.287926	30.0410
75.509949	30.277033	28.3295
76.057121	31.259880	26.4102
76.608261	32.220329	24.2777
77.163399	33.139698	21.9518
77.722557	33.993011	19.4796
78.285767	34.757744	16.9178
78.853058	35.420547	14.3175
79.424461	35.983658	11.6971
80.000000	36.462284	9.0375
80.579712	36.869049	6.2916
81.163628	37.197865	3.4167
81.751770	37.419945	0.4127
82.344177	37.499386	-2.6752
82.940880	37.404655	-5.7693
83.541901	37.126492	-8.7912
84.147285	36.682507	-11.6851
84.757050	36.109314	-14.4337
85.371231	35.439739	-17.0430
85.989868	34.696945	-19.5153
86.612984	33.897396	-21.8400
87.240616	33.055241	-24.0025
87.872803	32.185551	-25.9939
88.509560	31.305101	-27.8172
89.150940	30.428682	-29.4856
89.796967	29.567221	-31.0128
90.447670	28.728531	-32.4116
91.103088	27.917006	-33.6950
91.763260	27.132145	-34.8725
92.428215	26.371113	-35.9435
93.097992	25.633188	-36.9004
93.772614	24.920881	-37.7390
94.452133	24.237564	-38.4667
95.136566	23.585051	-39.1020
95.825966	22.961843	-39.6663
96.520363	22.363714	-40.1734
97.219788	21.786034	-40.6264
97.924286	21.225611	-41.0221
98.633881	20.683697	-41.3556
99.348625	20.168653	-41.6294
100.068542	19.691273	-41.8632
100.793686	19.254124	-42.0820
101.524078	18.847866	-42.2930
102.259766	18.458817	-42.4824
103.000778	18.077641	-42.6328
103.747162	17.702700	-42.7361
104.498962	17.338270	-42.7947
105.256203	16.989662	-42.8157
106.018929	16.658918	-42.8056
106.787186	16.344259	-42.7675
107.561012	16.042500	-42.7036
108.340446	15.751131	-42.6180
109.125526	15.468632	-42.5152
109.916290	15.195058	-42.3950
110.712791	14.932884	-42.2546
111.515060	14.685145	-42.0952
112.323143	14.452302	-41.9210
113.137085	14.232336	-41.7350
113.956924	14.022682	-41.5398
114.782700	13.821086	-41.3363
115.614464	13.626305	-41.1199
116.452255	13.438682	-40.8866
117.296112	13.259298	-40.6400
118.146095	13.088686	-40.3897
119.002228	12.926469	-40.1416
119.864563	12.771646	-39.8953
120.733154	12.623026	-39.6485
121.608040	12.479745	-39.3976
122.489258	12.341556	-39.1342
123.376869	12.207760	-38.8486
124.270905	12.076181	-38.5396
125.171425	11.944863	-38.2197
126.078468	11.814884	-37.9082
126.992081	11.689524	-37.6167
127.912323	11.570364	-37.3381
128.839233	11.456584	-37.0539
129.772842	11.347660	-36.7549
130.713242	11.244524	-36.4487
131.660431	11.147682	-36.1500
132.614502	11.055143	-35.8705
133.575485	10.963909	-35.6123
134.543427	10.873418	-35.3679
135.518387	10.785768	-35.1264
136.500412	10.701713	-34.8811
137.489548	10.619030	-34.6226
138.485855	10.536888	-34.3370
139.489380	10.457818	-34.0211
140.500168	10.383873	-33.6882
141.518295	10.314332	-33.3526
142.543793	10.247798	-33.0190
143.576721	10.183865	-32.6858
144.617142	10.122375	-32.3510
145.665100	10.062605	-32.0130
146.720642	10.003872	-31.6731
147.783844	9.946327	-31.3374
148.854752	9.890339	-31.0147
149.933411	9.835192	-30.7087
151.019897	9.779321	-30.4163
152.114243	9.722120	-30.1338
153.216522	9.664653	-29.8602
154.326797	9.608297	-29.5931
155.445114	9.553578	-29.3277
156.571533	9.500778	-29.0582
157.706116	9.450510	-28.7805
158.848923	9.402905	-28.4930
160.000000	9.357413	-28.1982
161.159424	9.314116	-27.9030
162.327255	9.273977	-27.6142
163.503540	9.236872	-27.3360
164.688354	9.200916	-27.0668
165.881760	9.164863	-26.8013
167.083801	9.129154	-26.5350
168.294571	9.094630	-26.2645
169.514099	9.061690	-25.9860
170.742462	9.030262	-25.6980
171.979736	9.000055	-25.4048
173.225967	8.971037	-25.1163
174.481232	8.943361	-24.8419
175.745605	8.916706	-24.5844
177.019119	8.889957	-24.3406
178.301880	8.861837	-24.1029
179.593933	8.831980	-23.8631
180.895340	8.801362	-23.6159
182.206177	8.771754	-23.3620
183.526520	8.744557	-23.1070
184.856430	8.719818	-22.8590
186.195984	8.696293	-22.6233
187.545227	8.672481	-22.3981
188.904266	8.647685	-22.1737
190.273132	8.622390	-21.9399
191.651932	8.597555	-21.6927
193.040726	8.573630	-21.4335
194.439575	8.550699	-21.1668
195.848572	8.529222	-20.8987
197.267761	8.509695	-20.6355
198.697250	8.491899	-20.3801
200.137085	8.474963	-20.1329
201.587372	8.458045	-19.8939
203.048157	8.440876	-19.6636
204.519531	8.423625	-19.4400
206.001556	8.406308	-19.2201
207.494324	8.388605	-19.0013
208.997925	8.370421	-18.7812
210.512405	8.352368	-18.5564
212.037857	8.335438	-18.3241
213.574371	8.320118	-18.0833
215.122025	8.306008	-17.8370
216.680893	8.292331	-17.5901
218.251053	8.278577	-17.3473
219.832581	8.264771	-17.1097
221.425583	8.251261	-16.8761
223.030121	8.238481	-16.6447
224.646286	8.226701	-16.4134
226.274170	8.215837	-16.1820
227.913849	8.205410	-15.9518
229.565399	8.194648	-15.7253
231.228928	8.183199	-15.5028
232.904510	8.171446	-15.2813
234.592224	8.159814	-15.0570
236.292191	8.148443	-14.8294
238.004456	8.137357	-14.6004
239.729126	8.126448	-14.3698
241.466309	8.115509	-14.1349
243.216080	8.104516	-13.8927
244.978516	8.093766	-13.6418
246.753738	8.083823	-13.3825
248.541809	8.075591	-13.1163
250.342850	8.070081	-12.8443
252.156937	8.067801	-12.5658
253.984161	8.068651	-12.2797
255.824646	8.072345	-11.9840
257.678467	8.078720	-11.6759
259.545685	8.088178	-11.3531
261.426483	8.102739	-11.0174
263.320862	8.126574	-10.6762
265.229004	8.164846	-10.3522
267.150970	8.221061	-10.1004
269.086853	8.292561	-10.0092
271.036774	8.365883	-10.1622
273.000824	8.418211	-10.5680
274.979095	8.429059	-11.1136
276.971710	8.394490	-11.6102
278.978760	8.329372	-11.9077
281.000336	8.255700	-11.9679
283.036591	8.189683	-11.8437
285.087585	8.137671	-11.6153
287.153442	8.099154	-11.3441
289.234283	8.071109	-11.0647
291.330200	8.050501	-10.7932
293.441284	8.034978	-10.5362
295.567688	8.022838	-10.2940
297.709503	8.012912	-10.0646
299.866821	8.004492	-9.8456
302.039795	7.997232	-9.6346
304.228485	7.990963	-9.4294
306.433044	7.985553	-9.2281
308.653595	7.980753	-9.0293
310.890228	7.976195	-8.8324
313.143066	7.971706	-8.6371
315.412231	7.967508	-8.4432
317.697845	7.963962	-8.2512
320.000000	7.961109	-8.0621
322.318848	7.958714	-7.8758
324.654510	7.956684	-7.6917
327.007080	7.955273	-7.5106
329.376709	7.954791	-7.3336
331.763519	7.955199	-7.1620
334.167603	7.956080	-6.9974
336.589142	7.956807	-6.8403
339.028198	7.956650	-6.6884
341.484924	7.955150	-6.5364
343.959473	7.952479	-6.3796
346.451935	7.949397	-6.2169
348.962463	7.946851	-6.0499
351.491211	7.945546	-5.8809
354.038239	7.945677	-5.7120
356.603760	7.946943	-5.5439
359.187866	7.948773	-5.3770
361.790680	7.950701	-5.2116
364.412354	7.952542	-5.0481
367.053040	7.954317	-4.8870
369.712860	7.956109	-4.7276
372.391968	7.958043	-4.5681
375.090454	7.960355	-4.4063
377.808533	7.963269	-4.2409
380.546265	7.966878	-4.0724
383.303864	7.971275	-3.9026
386.081451	7.976628	-3.7323
388.879150	7.983101	-3.5621
391.697144	7.990869	-3.3935
394.535522	8.000217	-3.2295
397.394501	8.011419	-3.0729
400.274170	8.024534	-2.9277
403.174744	8.039315	-2.7995
406.096313	8.055107	-2.6943
409.039062	8.070745	-2.6162
412.003113	8.084735	-2.5650
414.988647	8.095716	-2.5366
417.995850	8.102851	-2.5240
421.024811	8.105844	-2.5179
424.075714	8.104739	-2.5077
427.148743	8.099943	-2.4827
430.244049	8.092458	-2.4350
433.361786	8.083801	-2.3620
436.502106	8.075436	-2.2656
439.665161	8.068236	-2.1509
442.851166	8.062424	-2.0236
446.060242	8.057803	-1.8879
449.292572	8.054078	-1.7457
452.548340	8.051085	-1.5981
455.827698	8.048891	-1.4455
459.130798	8.047750	-1.2891
462.457855	8.047812	-1.1305
465.809021	8.048976	-0.9718
469.184448	8.051006	-0.8147
472.584381	8.053624	-0.6599
476.008911	8.056471	-0.5068
479.458252	8.059341	-0.3533
482.932617	8.062396	-0.1966
486.432159	8.065945	-0.0345
489.957031	8.070133	0.1339
493.507477	8.075148	0.3100
497.083618	8.081528	0.4953
500.685699	8.090279	0.6927
504.313873	8.103144	0.9041
507.968323	8.122960	1.1240
511.649292	8.153167	1.3262
515.356934	8.194741	1.4534
519.091370	8.240563	1.4354
522.852966	8.273827	1.2557
526.641724	8.279060	1.0095
530.458008	8.257516	0.8484
534.301941	8.225819	0.8514
538.173706	8.199934	0.9888
542.073547	8.185797	1.1899
546.001648	8.182072	1.4027
549.958191	8.185602	1.6036
553.943420	8.193896	1.7860
557.957520	8.205296	1.9499
562.000671	8.218699	2.0969
566.073181	8.233425	2.2275
570.175171	8.249084	2.3405
574.306885	8.265300	2.4322
578.468567	8.281303	2.4986
582.660400	8.295739	2.5382
586.882568	8.306989	2.5547
591.135376	8.313749	2.5575
595.419006	8.315544	2.5605
599.733643	8.312861	2.5788
604.079590	8.306920	2.6247
608.456970	8.299366	2.7041
612.866089	8.291964	2.8164
617.307190	8.286148	2.9565
621.780457	8.282607	3.1180
626.286133	8.281365	3.2965
630.824463	8.282319	3.4904
635.395691	8.285671	3.7004
640.000000	8.292003	3.9272
644.637695	8.302281	4.1717
649.309021	8.318167	4.4362
654.014160	8.342636	4.7229
658.753418	8.380819	5.0264
663.527039	8.439935	5.3136
668.335205	8.525748	5.4968
673.178284	8.633013	5.4294
678.056396	8.734792	4.9826
682.969849	8.788206	4.1999
687.918945	8.765621	3.3633
692.903870	8.681689	2.8070
697.924927	8.579931	2.6609
702.982422	8.496424	2.8255
708.076477	8.442853	3.1309
713.207520	8.414272	3.4579
718.375732	8.401531	3.7552
723.581360	8.397514	4.0126
728.824707	8.398162	4.2363
734.106079	8.401532	4.4344
739.425720	8.406679	4.6137
744.783936	8.412919	4.7795
750.180908	8.419661	4.9370
755.617065	8.426682	5.0906
761.092529	8.434174	5.2416
766.607727	8.442312	5.3886
772.162903	8.451040	5.5299
777.758301	8.460172	5.6665
783.394287	8.469606	5.8010
789.071045	8.479381	5.9355
794.789001	8.489609	6.0703
800.548340	8.500378	6.2055
806.349487	8.511738	6.3426
812.192627	8.523946	6.4843
818.078125	8.537779	6.6330
824.006226	8.554661	6.7880
829.977295	8.576562	6.9420
835.991699	8.605208	7.0732
842.049622	8.639618	7.1443
848.151428	8.673276	7.1225
854.297485	8.695644	7.0179
860.488098	8.700094	6.8987
866.723572	8.690281	6.8429
873.004211	8.676399	6.8802
879.330322	8.666674	6.9885
885.702332	8.663709	7.1300
892.120483	8.666373	7.2781
898.585144	8.672666	7.4219
905.096680	8.681103	7.5596
911.655396	8.690877	7.6923
918.261597	8.701612	7.8217
924.915710	8.713151	7.9495
931.618042	8.725475	8.0770
938.368896	8.738583	8.2038
945.168762	8.752307	8.3292
952.017822	8.766506	8.4530
958.916504	8.781302	8.5759
965.865234	8.796947	8.6986
972.864319	8.813734	8.8226
979.914062	8.832175	8.9484
987.014954	8.852883	9.0727
994.167236	8.876043	9.1869
1001.371399	8.900727	9.2789
1008.627747	8.924338	9.3401
1015.936646	8.943324	9.3767
1023.298584	8.955607	9.4139
1030.713867	8.962759	9.4834
1038.182739	8.969342	9.6030
1045.705933	8.979898	9.7678
1053.283447	8.996671	9.9594
1060.916016	9.019770	10.1613
1068.603882	9.048656	10.3650
1076.347412	9.083176	10.5671
1084.147095	9.123867	10.7649
1092.003296	9.172029	10.9522
1099.916382	9.229548	11.1168
1107.886841	9.298102	11.2363
1115.915039	9.377678	11.2768
1124.001343	9.464750	11.1973
1132.146362	9.550814	10.9632
1140.350342	9.622642	10.5686
1148.613770	9.665999	10.0591
1156.937134	9.672254	9.5324
1165.320801	9.643899	9.1044
1173.765137	9.594217	8.8574
1182.270752	9.540657	8.8107
1190.838013	9.497518	8.9301
1199.467285	9.472930	9.1576
1208.159180	9.469803	9.4357
1216.913940	9.487671	9.7136
1225.732178	9.523236	9.9457
1234.614380	9.569927	10.0985
1243.560913	9.619314	10.1674
1252.572266	9.665773	10.1825
1261.648926	9.709932	10.1813
1270.791382	9.756344	10.1760
1280.000000	9.808508	10.1502
1289.275391	9.866499	10.0774
1298.618042	9.927401	9.9360
1308.028320	9.986616	9.7154
1317.506836	10.038975	9.4165
1327.054077	10.079514	9.0532
1336.670410	10.104556	8.6543
1346.356567	10.113127	8.2585
1356.112793	10.107838	7.9046
1365.939697	10.094648	7.6162
1375.837891	10.080961	7.3905
1385.807739	10.072207	7.1990
1395.849854	10.069210	7.0025
1405.964844	10.068539	6.7703
1416.152954	10.064717	6.4880
1426.415039	10.051527	6.1589
1436.751465	10.022896	5.8063
1447.162720	9.975498	5.4754
1457.649414	9.911460	5.2184
1468.212158	9.837934	5.0713
1478.851440	9.763628	5.0414
1489.567871	9.695410	5.1126
1500.361816	9.637026	5.2580
1511.234131	9.589689	5.4500
1522.185059	9.553180	5.6662
1533.215454	9.526560	5.8898
1544.325806	9.508556	6.1085
1555.516602	9.497730	6.3124
1566.788574	9.492370	6.4941
1578.142090	9.490335	6.6496
1589.578003	9.489265	6.7796
1601.096680	9.487214	6.8908
1612.698975	9.483376	6.9944
1624.385254	9.478279	7.1019
1636.156250	9.473179	7.2201
1648.012451	9.469191	7.3498
1659.954590	9.466928	7.4867
1671.983398	9.466697	7.6248
1684.099243	9.468638	7.7598
1696.302856	9.472598	7.8902
1708.594971	9.478291	8.0162
1720.976196	9.485680	8.1375
1733.447144	9.494907	8.2509
1746.008423	9.505578	8.3499
1758.660645	9.516319	8.4305
1771.404663	9.525341	8.4967
1784.240967	9.531691	8.5593
1797.170288	9.535975	8.6289
1810.193359	9.539721	8.7090
1823.310791	9.544285	8.7962
1836.523193	9.550284	8.8855
1849.831421	9.557661	8.9736
1863.236084	9.566092	9.0592
1876.737793	9.575361	9.1420
1890.337524	9.585391	9.2223
1904.035645	9.596059	9.3005
1917.833008	9.607192	9.3761
1931.730469	9.618652	9.4479
1945.728638	9.630230	9.5143
1959.828125	9.641628	9.5750
1974.029907	9.652714	9.6316
1988.334473	9.663496	9.6860
2002.742798	9.673952	9.7391
2017.255493	9.684040	9.7908
2031.873291	9.693743	9.8413
2046.597168	9.703081	9.8907
2061.427734	9.712162	9.9402
2076.365479	9.721138	9.9909
2091.411865	9.730099	10.0436
2106.566895	9.739078	10.0977
2121.832031	9.748158	10.1522
2137.207764	9.757433	10.2058
2152.694824	9.766933	10.2578
2168.294189	9.776696	10.3090
2184.006592	9.786785	10.3606
2199.832764	9.797163	10.4128
2215.773682	9.807755	10.4651
2231.830078	9.818516	10.5176
2248.002686	9.829458	10.5697
2264.292725	9.840590	10.6206
2280.700684	9.851822	10.6699
2297.227539	9.862968	10.7176
2313.874268	9.873979	10.7642
2330.641602	9.884963	10.8097
2347.530273	9.896023	10.8542
2364.541504	9.907224	10.8977
2381.676025	9.918633	10.9402
2398.934570	9.930350	10.9822
2416.318359	9.942514	11.0241
2433.827881	9.955203	11.0656
2451.464355	9.968291	11.1043
2469.228760	9.981425	11.1369
2487.121826	9.994059	11.1627
2505.144531	10.005656	11.1839
2523.297852	10.016084	11.2043
2541.582764	10.025638	11.2264
2560.000000	10.034660	11.2518
2578.550781	10.043490	11.2818
2597.236084	10.052523	11.3171
2616.056641	10.061983	11.3568
2635.013672	10.071877	11.3990
2654.108154	10.082184	11.4412
2673.340820	10.092915	11.4818
2692.713135	10.104000	11.5207
2712.225586	10.115417	11.5580
2731.879395	10.127242	11.5927
2751.675781	10.139363	11.6230
2771.615479	10.151319	11.6486
2791.699707	10.162603	11.6718
2811.929688	10.172878	11.6958
2832.305908	10.181995	11.7229
2852.830078	10.190170	11.7534
2873.502930	10.198053	11.7858
2894.325439	10.206327	11.8195
2915.298828	10.215262	11.8542
2936.424316	10.224741	11.8892
2957.702881	10.234546	11.9238
2979.135742	10.244431	11.9583
3000.723633	10.254283	11.9935
3022.468262	10.264290	12.0290
3044.370117	10.274666	12.0632
3066.430908	10.285339	12.0954
3088.651611	10.296120	12.1266
3111.033203	10.306864	12.1585
3133.577148	10.317417	12.1914
3156.284180	10.327630	12.2241
3179.156006	10.337604	12.2558
3202.193359	10.347572	12.2873
3225.397949	10.357684	12.3190
3248.770508	10.368014	12.3509
3272.312500	10.378519	12.3830
3296.024902	10.389010	12.4157
3319.909180	10.399326	12.4490
3343.966797	10.409541	12.4823
3368.198486	10.419851	12.5147
3392.605713	10.430383	12.5464
3417.189941	10.441176	12.5780
3441.952393	10.452126	12.6103
3466.894287	10.462912	12.6430
3492.016846	10.473301	12.6765
3517.321289	10.483423	12.7109
3542.809326	10.493646	12.7456
3568.481934	10.504221	12.7791
3594.340576	10.515064	12.8103
3620.386719	10.525893	12.8392
3646.621582	10.536574	12.8670
3673.046387	10.547203	12.8951
3699.662842	10.557837	12.9240
3726.472168	10.568446	12.9540
3753.475586	10.579058	12.9848
3780.675049	10.589589	13.0161
3808.071289	10.599867	13.0468
3835.666016	10.609880	13.0765
3863.460938	10.619733	13.1056
3891.457275	10.629512	13.1352
3919.656250	10.639326	13.1656
3948.059814	10.649247	13.1967
3976.668945	10.659223	13.2288
4005.485596	10.669192	13.2622
4034.510986	10.679231	13.2967
4063.746582	10.689494	13.3315
4093.194336	10.700036	13.3658
4122.855469	10.710761	13.3998
4152.730957	10.721539	13.4341
4182.823730	10.732344	13.4689
4213.133789	10.743244	13.5042
4243.664062	10.754156	13.5386
4274.415527	10.764811	13.5707
4305.389648	10.775112	13.6007
4336.588379	10.785195	13.6309
4368.013184	10.795213	13.6632
4399.665527	10.805310	13.6971
4431.547363	10.815554	13.7316
4463.660156	10.825904	13.7660
4496.005371	10.836321	13.8006
4528.585449	10.846836	13.8357
4561.401367	10.857472	13.8718
4594.455078	10.868222	13.9084
4627.748535	10.879098	13.9449
4661.283203	10.890110	13.9815
4695.060547	10.901235	14.0189
4729.083008	10.912420	14.0570
4763.352051	10.923571	14.0953
4797.869141	10.934663	14.1333
4832.636719	10.945896	14.1702
4867.655762	10.957535	14.2050
4902.928711	10.969589	14.2389
4938.457520	10.981746	14.2740
4974.243652	10.993748	14.3109
5010.289062	11.005716	14.3491
5046.595703	11.017875	14.3874
5083.165527	11.030319	14.4245
5120.000000	11.043021	14.4599
5157.101562	11.055893	14.4934
5194.472168	11.068825	14.5248
5232.113281	11.081761	14.5542
5270.027344	11.094698	14.5817
5308.216309	11.107652	14.6078
5346.681641	11.120642	14.6330
5385.426270	11.133657	14.6569
5424.451172	11.146604	14.6788
5463.758789	11.159306	14.6976
5503.351562	11.171538	14.7129
