1 //VoltageSource
7 //Lines
  2.82842712474619 //Vrms
  F //Inverted
  118 //position X
  64 //position Y
  0 //overall delay
  1 //Power
  8 //Ohms for Power level
0 //Subckts
27 //Lines Per Subckt
6 //Passives
20 //Lines Per Passive
 1 //PartType
 1 //RefDes
   //Part#
  1E-5 //Value
  0.05 //ESR
  250 //Rating
  135 //position X
  62 //position Y
  T  //Is Horizontal
  0 //StepMode
  1 //0short/1val/2open
  -1 //Subckt#,-1 if none
  //No Subckt equation1
  //No Subckt equation2
  F  //Is HighSpec
  0 //Specd component manuf tolerance
  0 //Search tolerance for nom values
  0 //ESR tolerance for search
  0 //Tolerance of chosen part tol
   //vendor of part number
 2 //PartType
 1 //RefDes
   //Part#
  0.001 //Value
  0.71 //ESR
  300 //Rating
  138 //position X
  65 //position Y
  F  //Is Horizontal
  1 //StepMode
  1 //0short/1val/2open
  -1 //Subckt#,-1 if none
  //No Subckt equation1
  //No Subckt equation2
  F  //Is HighSpec
  0 //Specd component manuf tolerance
  0 //Search tolerance for nom values
  0 //ESR tolerance for search
  0 //Tolerance of chosen part tol
   //vendor of part number
 2 //PartType
 2 //RefDes
   //Part#
  0.0027 //Value
  0.9 //ESR
  300 //Rating
  129 //position X
  72 //position Y
  T  //Is Horizontal
  1 //StepMode
  1 //0short/1val/2open
  -1 //Subckt#,-1 if none
  //No Subckt equation1
  //No Subckt equation2
  F  //Is HighSpec
  0 //Specd component manuf tolerance
  0 //Search tolerance for nom values
  0 //ESR tolerance for search
  0 //Tolerance of chosen part tol
   //vendor of part number
 1 //PartType
 2 //RefDes
   //Part#
  4.3E-5 //Value
  0.05 //ESR
  250 //Rating
  135 //position X
  75 //position Y
  F  //Is Horizontal
  1 //StepMode
  1 //0short/1val/2open
  -1 //Subckt#,-1 if none
  //No Subckt equation1
  //No Subckt equation2
  F  //Is HighSpec
  0 //Specd component manuf tolerance
  0 //Search tolerance for nom values
  0 //ESR tolerance for search
  0 //Tolerance of chosen part tol
   //vendor of part number
 0 //PartType
 3 //RefDes
   //Part#
  3.3 //Value
  -1 //ESR
  10 //Rating
  141 //position X
  62 //position Y
  T  //Is Horizontal
  1 //StepMode
  1 //0short/1val/2open
  -1 //Subckt#,-1 if none
  //No Subckt equation1
  //No Subckt equation2
  F  //Is HighSpec
  0 //Specd component manuf tolerance
  0 //Search tolerance for nom values
  0 //ESR tolerance for search
  0 //Tolerance of chosen part tol
   //vendor of part number
 0 //PartType
 1 //RefDes
   //Part#
  20 //Value
  -1 //ESR
  10 //Rating
  146 //position X
  65 //position Y
  F  //Is Horizontal
  1 //StepMode
  1 //0short/1val/2open
  -1 //Subckt#,-1 if none
  //No Subckt equation1
  //No Subckt equation2
  F  //Is HighSpec
  0 //Specd component manuf tolerance
  0 //Search tolerance for nom values
  0 //ESR tolerance for search
  0 //Tolerance of chosen part tol
   //vendor of part number
6 //Grounds
3 //Lines Per Ground
 149 //position X
  74 //position Y
  -1 //Subckt#,-1 if none
 121 //position X
  66 //position Y
  -1 //Subckt#,-1 if none
 135 //position X
  78 //position Y
  -1 //Subckt#,-1 if none
 150 //position X
  64 //position Y
  -1 //Subckt#,-1 if none
 138 //position X
  68 //position Y
  -1 //Subckt#,-1 if none
 146 //position X
  68 //position Y
  -1 //Subckt#,-1 if none
5 //Wires
5 //Lines Per Wire
 126 //End1 X
  62 //End1 Y
  126 //End2 X
  72 //End2 Y
  -1 //Subckt#,-1 if none
 121 //End1 X
  62 //End1 Y
  126 //End2 X
  62 //End2 Y
  -1 //Subckt#,-1 if none
 132 //End1 X
  72 //End1 Y
  149 //End2 X
  72 //End2 Y
  -1 //Subckt#,-1 if none
 126 //End1 X
  62 //End1 Y
  132 //End2 X
  62 //End2 Y
  -1 //Subckt#,-1 if none
 144 //End1 X
  62 //End1 Y
  150 //End2 X
  62 //End2 Y
  -1 //Subckt#,-1 if none
0 //Texts
6 //Lines Per Text
2 //Drivers
34 //Lines Per Driver
!Driver 0
  1 //RefDes
   //Name
   //PartNumber
  151 //position X
  63 //position Y
  F //Inverted
  F //Muted
  10 //Rating
  0 //dBGain
  0 //Delay
  0 //Xoffs
  0 //Yoffs
  0 //Zoffs
  0 //Htilt
  0 //Vtilt
  0 //dia
  Tweeter.frd //FRD filename
  TWEETER.zma //ZMA filename
  T //Phase from Hilbert transform
  505.447028499295 //Lower Hilbert extrapolation frequency
  16528.925 //Upper Hilbert extrapolation frequency
  8 //Lower Extrapolation slope
  13.5 //Upper Extrapolation slope
  F //Invert Hilbert phase if used
  0 //Hilbert Delay to add
  F //get acoust info from a model
   //ACOUstic FRD filename
   //Vendor name
  6.5  //Nominal Dia.
  0  //rectang. Ht
  0  //rectang. Wt
   //
  F //Z Phase from Hilbert transform
**FRD 1 for driver 0
Tweeter.frd //frd filename
* Measurement data measured by REW V5.30.8
* Source: U18dB [plughw:2,0], no input selected, R, volume: no control
* Format: 512k Log Swept Sine, 1 sweep at 0.0 dBFS with no timing reference
* Dated: Feb 10, 2024 1:11:55 PM
* REW Settings:
*  C-weighting compensation: Off
*  Target level: 75.0 dB
* Note: 
* Measurement: Tweeter Far Field
* Smoothing: 1/24 octave
* Frequency Step: 1/96 octave
* Start Frequency: 302.040 Hz
*
* Freq(Hz)	SPL(dB)	Phase(degrees)
302.039795	71.308	155.4401
304.228485	71.391	155.1490
306.433044	71.496	154.8209
308.653595	71.613	154.4793
310.890228	71.735	154.1328
313.143066	71.857	153.7839
315.412231	71.980	153.4335
317.697845	72.103	153.0817
320.000000	72.226	152.7287
322.318848	72.349	152.3745
324.654510	72.471	152.0191
327.007080	72.593	151.6624
329.376709	72.715	151.3046
331.763519	72.836	150.9457
334.167603	72.958	150.5856
336.589142	73.079	150.2244
339.028198	73.200	149.8621
341.484924	73.321	149.4988
343.959473	73.441	149.1344
346.451935	73.562	148.7690
348.962463	73.682	148.4026
351.491211	73.802	148.0352
354.038239	73.921	147.6669
356.603760	74.041	147.2977
359.187866	74.160	146.9276
361.790680	74.279	146.5566
364.412354	74.398	146.1849
367.053040	74.516	145.8123
369.712860	74.634	145.4390
372.391968	74.752	145.0649
375.090454	74.870	144.6901
377.808533	74.988	144.3147
380.546265	75.105	143.9386
383.303864	75.222	143.5619
386.081451	75.339	143.1847
388.879150	75.455	142.8069
391.697144	75.571	142.4286
394.535522	75.687	142.0499
397.394501	75.802	141.6707
400.274170	75.917	141.2911
403.174744	76.031	140.9112
406.096313	76.145	140.5309
409.039062	76.259	140.1503
412.003113	76.372	139.7695
414.988647	76.485	139.3884
417.995850	76.598	139.0072
421.024811	76.710	138.6258
424.075714	76.823	138.2442
427.148743	76.935	137.8625
430.244049	77.047	137.4807
433.361786	77.160	137.0989
436.502106	77.272	136.7170
439.665161	77.384	136.3351
442.851166	77.495	135.9532
446.060242	77.607	135.5713
449.292572	77.719	135.1895
452.548340	77.830	134.8077
455.827698	77.942	134.4260
459.130798	78.053	134.0443
462.457855	78.165	133.6626
465.809021	78.276	133.2810
469.184448	78.387	132.8995
472.584381	78.498	132.5180
476.008911	78.610	132.1365
479.458252	78.721	131.7551
482.932617	78.832	131.3736
486.432159	78.943	130.9921
489.957031	79.055	130.6104
493.507477	79.166	130.2287
497.083618	79.277	129.8468
500.685699	79.389	129.4646
504.313873	79.500	129.0822
507.968323	79.612	128.6994
511.649292	79.724	128.3162
515.356934	79.836	127.9325
519.091370	79.949	127.5481
522.852966	80.061	127.1631
526.641724	80.174	126.7773
530.458008	80.287	126.3906
534.301941	80.400	126.0028
538.173706	80.514	125.6139
542.073547	80.628	125.2237
546.001648	80.742	124.8320
549.958191	80.856	124.4387
553.943420	80.971	124.0437
557.957520	81.086	123.6467
562.000671	81.201	123.2477
566.073181	81.316	122.8463
570.175171	81.432	122.4424
574.306885	81.548	122.0358
578.468567	81.665	121.6263
582.660400	81.781	121.2137
586.882568	81.899	120.7977
591.135376	82.016	120.3781
595.419006	82.134	119.9547
599.733643	82.252	119.5272
604.079590	82.371	119.0953
608.456970	82.490	118.6588
612.866089	82.610	118.2174
617.307190	82.730	117.7710
621.780457	82.850	117.3191
626.286133	82.971	116.8615
630.824463	83.092	116.3979
635.395691	83.213	115.9281
640.000000	83.335	115.4518
644.637695	83.457	114.9686
649.309021	83.579	114.4784
654.014160	83.702	113.9807
658.753418	83.826	113.4754
663.527039	83.950	112.9622
668.335205	84.074	112.4408
673.178284	84.198	111.9108
678.056396	84.323	111.3721
682.969849	84.448	110.8245
687.918945	84.573	110.2675
692.903870	84.698	109.7010
697.924927	84.823	109.1248
702.982422	84.947	108.5386
708.076477	85.071	107.9422
713.207520	85.195	107.3354
718.375732	85.319	106.7179
723.581360	85.442	106.0897
728.824707	85.564	105.4505
734.106079	85.686	104.8001
739.425720	85.807	104.1385
744.783936	85.928	103.4654
750.180908	86.047	102.7809
755.617065	86.166	102.0846
761.092529	86.284	101.3766
766.607727	86.401	100.6569
772.162903	86.517	99.9253
777.758301	86.631	99.1818
783.394287	86.745	98.4265
789.071045	86.857	97.6592
794.789001	86.968	96.8801
800.548340	87.077	96.0893
806.349487	87.185	95.2867
812.192627	87.291	94.4725
818.078125	87.395	93.6468
824.006226	87.498	92.8097
829.977295	87.599	91.9615
835.991699	87.697	91.1023
842.049622	87.793	90.2323
848.151428	87.887	89.3519
854.297485	87.979	88.4614
860.488098	88.069	87.5609
866.723572	88.155	86.6510
873.004211	88.239	85.7320
879.330322	88.321	84.8044
885.702332	88.399	83.8686
892.120483	88.474	82.9251
898.585144	88.547	81.9746
905.096680	88.616	81.0176
911.655396	88.682	80.0548
918.261597	88.744	79.0870
924.915710	88.803	78.1148
931.618042	88.858	77.1391
938.368896	88.910	76.1609
945.168762	88.958	75.1810
952.017822	89.001	74.2006
958.916504	89.041	73.2207
965.865234	89.077	72.2425
972.864319	89.108	71.2673
979.914062	89.134	70.2963
987.014954	89.157	69.3312
994.167236	89.174	68.3734
1001.371399	89.187	67.4246
1008.627747	89.195	66.4864
1015.936646	89.199	65.5609
1023.298584	89.197	64.6498
1030.713867	89.191	63.7554
1038.182739	89.180	62.8799
1045.705933	89.165	62.0254
1053.283447	89.144	61.1945
1060.916016	89.119	60.3898
1068.603882	89.090	59.6138
1076.347412	89.055	58.8694
1084.147095	89.017	58.1593
1092.003296	88.975	57.4864
1099.916382	88.929	56.8538
1107.886841	88.879	56.2644
1115.915039	88.827	55.7210
1124.001343	88.771	55.2266
1132.146362	88.714	54.7839
1140.350342	88.655	54.3954
1148.613770	88.595	54.0633
1156.937134	88.535	53.7896
1165.320801	88.476	53.5757
1173.765137	88.419	53.4225
1182.270752	88.364	53.3302
1190.838013	88.312	53.2982
1199.467285	88.265	53.3251
1208.159180	88.224	53.4084
1216.913940	88.190	53.5447
1225.732178	88.163	53.7296
1234.614380	88.145	53.9574
1243.560913	88.136	54.2215
1252.572266	88.137	54.5145
1261.648926	88.149	54.8280
1270.791382	88.172	55.1532
1280.000000	88.206	55.4807
1289.275391	88.251	55.8014
1298.618042	88.306	56.1059
1308.028320	88.372	56.3855
1317.506836	88.447	56.6321
1327.054077	88.530	56.8385
1336.670410	88.621	56.9984
1346.356567	88.718	57.1069
1356.112793	88.820	57.1601
1365.939697	88.927	57.1556
1375.837891	89.035	57.0919
1385.807739	89.145	56.9691
1395.849854	89.256	56.7881
1405.964844	89.365	56.5508
1416.152954	89.473	56.2603
1426.415039	89.578	55.9201
1436.751465	89.679	55.5348
1447.162720	89.775	55.1091
1457.649414	89.867	54.6486
1468.212158	89.953	54.1589
1478.851440	90.033	53.6460
1489.567871	90.107	53.1162
1500.361816	90.175	52.5756
1511.234131	90.236	52.0303
1522.185059	90.292	51.4864
1533.215454	90.342	50.9496
1544.325806	90.387	50.4253
1555.516602	90.427	49.9184
1566.788574	90.463	49.4330
1578.142090	90.496	48.9726
1589.578003	90.526	48.5398
1601.096680	90.555	48.1361
1612.698975	90.584	47.7618
1624.385254	90.614	47.4159
1636.156250	90.645	47.0963
1648.012451	90.679	46.7992
1659.954590	90.717	46.5197
1671.983398	90.760	46.2516
1684.099243	90.807	45.9878
1696.302856	90.860	45.7201
1708.594971	90.918	45.4398
1720.976196	90.981	45.1381
1733.447144	91.049	44.8061
1746.008423	91.121	44.4353
1758.660645	91.197	44.0183
1771.404663	91.275	43.5482
1784.240967	91.354	43.0198
1797.170288	91.433	42.4291
1810.193359	91.511	41.7735
1823.310791	91.584	41.0524
1836.523193	91.654	40.2664
1849.831421	91.716	39.4178
1863.236084	91.771	38.5103
1876.737793	91.817	37.5490
1890.337524	91.853	36.5403
1904.035645	91.877	35.4918
1917.833008	91.888	34.4122
1931.730469	91.885	33.3110
1945.728638	91.869	32.1990
1959.828125	91.837	31.0874
1974.029907	91.790	29.9886
1988.334473	91.729	28.9155
2002.742798	91.652	27.8816
2017.255493	91.560	26.9008
2031.873291	91.455	25.9873
2046.597168	91.337	25.1553
2061.427734	91.208	24.4188
2076.365479	91.069	23.7905
2091.411865	90.924	23.2819
2106.566895	90.776	22.9024
2121.832031	90.627	22.6577
2137.207764	90.482	22.5498
2152.694824	90.344	22.5751
2168.294189	90.219	22.7242
2184.006592	90.109	22.9806
2199.832764	90.019	23.3215
2215.773682	89.952	23.7177
2231.830078	89.908	24.1351
2248.002686	89.889	24.5371
2264.292725	89.893	24.8864
2280.700684	89.919	25.1477
2297.227539	89.962	25.2905
2313.874268	90.019	25.2900
2330.641602	90.085	25.1287
2347.530273	90.154	24.7969
2364.541504	90.221	24.2920
2381.676025	90.281	23.6182
2398.934570	90.329	22.7856
2416.318359	90.360	21.8093
2433.827881	90.371	20.7089
2451.464355	90.359	19.5075
2469.228760	90.319	18.2314
2487.121826	90.251	16.9099
2505.144531	90.152	15.5753
2523.297852	90.021	14.2621
2541.582764	89.858	13.0081
2560.000000	89.663	11.8531
2578.550781	89.437	10.8394
2597.236084	89.185	10.0105
2616.056641	88.910	9.4096
2635.013672	88.618	9.0774
2654.108154	88.317	9.0478
2673.340820	88.019	9.3429
2692.713135	87.734	9.9670
2712.225586	87.475	10.9001
2731.879395	87.255	12.0940
2751.675781	87.084	13.4723
2771.615479	86.969	14.9368
2791.699707	86.909	16.3799
2811.929688	86.900	17.6990
2832.305908	86.935	18.8110
2852.830078	86.999	19.6609
2873.502930	87.080	20.2241
2894.325439	87.165	20.5042
2915.298828	87.243	20.5266
2936.424316	87.305	20.3323
2957.702881	87.345	19.9715
2979.135742	87.358	19.4987
3000.723633	87.343	18.9686
3022.468262	87.299	18.4335
3044.370117	87.230	17.9403
3066.430908	87.138	17.5294
3088.651611	87.028	17.2319
3111.033203	86.905	17.0695
3133.577148	86.774	17.0532
3156.284180	86.642	17.1838
3179.156006	86.513	17.4534
3202.193359	86.391	17.8473
3225.397949	86.279	18.3473
3248.770508	86.179	18.9343
3272.312500	86.092	19.5910
3296.024902	86.019	20.3029
3319.909180	85.960	21.0581
3343.966797	85.915	21.8458
3368.198486	85.886	22.6541
3392.605713	85.873	23.4681
3417.189941	85.876	24.2689
3441.952393	85.896	25.0342
3466.894287	85.930	25.7406
3492.016846	85.976	26.3674
3517.321289	86.029	26.9010
3542.809326	86.085	27.3376
3568.481934	86.139	27.6860
3594.340576	86.188	27.9664
3620.386719	86.229	28.2084
3646.621582	86.261	28.4461
3673.046387	86.287	28.7124
3699.662842	86.311	29.0320
3726.472168	86.338	29.4153
3753.475586	86.376	29.8541
3780.675049	86.428	30.3207
3808.071289	86.498	30.7720
3835.666016	86.586	31.1577
3863.460938	86.688	31.4317
3891.457275	86.798	31.5622
3919.656250	86.907	31.5395
3948.059814	87.009	31.3779
3976.668945	87.096	31.1137
4005.485596	87.166	30.7980
4034.510986	87.218	30.4880
4063.746582	87.257	30.2361
4093.194336	87.290	30.0787
4122.855469	87.327	30.0269
4152.730957	87.377	30.0617
4182.823730	87.447	30.1347
4213.133789	87.541	30.1784
4243.664062	87.657	30.1209
4274.415527	87.790	29.9028
4305.389648	87.928	29.4907
4336.588379	88.064	28.8817
4368.013184	88.187	28.1011
4399.665527	88.292	27.1943
4431.547363	88.377	26.2145
4463.660156	88.442	25.2112
4496.005371	88.493	24.2189
4528.585449	88.535	23.2508
4561.401367	88.574	22.2961
4594.455078	88.611	21.3251
4627.748535	88.648	20.2996
4661.283203	88.678	19.1862
4695.060547	88.695	17.9696
4729.083008	88.690	16.6611
4763.352051	88.654	15.3021
4797.869141	88.580	13.9613
4832.636719	88.467	12.7275
4867.655762	88.316	11.6998
4902.928711	88.139	10.9740
4938.457520	87.948	10.6265
4974.243652	87.764	10.6966
5010.289062	87.611	11.1695
5046.595703	87.509	11.9674
5083.165527	87.475	12.9550
5120.000000	87.516	13.9610
5157.101562	87.628	14.8119
5194.472168	87.798	15.3640
5232.113281	88.008	15.5226
5270.027344	88.237	15.2465
5308.216309	88.465	14.5410
5346.681641	88.675	13.4467
5385.426270	88.856	12.0275
5424.451172	88.997	10.3614
5463.758789	89.095	8.5320
5503.351562	89.148	6.6222
5543.230957	89.159	4.7072
5583.399414	89.134	2.8485
5623.859375	89.081	1.0896
5664.611816	89.008	-0.5477
5705.660156	88.924	-2.0625
5747.005859	88.836	-3.4712
5788.650879	88.749	-4.8022
5830.597656	88.665	-6.0887
5872.848633	88.586	-7.3633
5915.405762	88.508	-8.6537
5958.271484	88.429	-9.9802
6001.447266	88.344	-11.3519
6044.936523	88.246	-12.7635
6088.740234	88.131	-14.1905
6132.861816	87.992	-15.5883
6177.303223	87.827	-16.8950
6222.066406	87.637	-18.0406
6267.154297	87.429	-18.9614
6312.568359	87.211	-19.6156
6358.312012	86.993	-19.9923
6404.386719	86.784	-20.1087
6450.795898	86.587	-19.9909
6497.541016	86.406	-19.6485
6544.625000	86.241	-19.0597
6592.049805	86.101	-18.1823
6639.818359	86.001	-16.9953
6687.933594	85.966	-15.5568
6736.396973	86.015	-14.0398
6785.211426	86.152	-12.7064
6834.379883	86.358	-11.8202
6883.904785	86.598	-11.5479
6933.788574	86.831	-11.9121
6984.033691	87.021	-12.8086
7034.642578	87.146	-14.0579
7085.618652	87.201	-15.4594
7136.963867	87.191	-16.8330
7188.681152	87.134	-18.0496
7240.773438	87.052	-19.0498
7293.243164	86.968	-19.8529
7346.092773	86.903	-20.5524
7399.325684	86.865	-21.2900
7452.944336	86.852	-22.2119
7506.951172	86.848	-23.4189
7561.350098	86.830	-24.9289
7616.142578	86.778	-26.6675
7671.332031	86.681	-28.4874
7726.921875	86.540	-30.2096
7782.914551	86.369	-31.6766
7839.312500	86.195	-32.8042
7896.119629	86.044	-33.6123
7953.337891	85.937	-34.2115
8010.971191	85.873	-34.7440
8069.021973	85.840	-35.3048
8127.493164	85.815	-35.8876
8186.388672	85.785	-36.3804
8245.710938	85.749	-36.6135
8305.461914	85.727	-36.4535
8365.647461	85.752	-35.9165
8426.267578	85.848	-35.2309
8487.328125	86.006	-34.7562
8548.831055	86.176	-34.7691
8610.779297	86.295	-35.2791
8673.176758	86.311	-36.0166
8736.026367	86.211	-36.5893
8799.331055	86.020	-36.7198
8863.094727	85.769	-36.4332
8927.320312	85.457	-35.9952
8992.010742	85.027	-35.5161
9057.170898	84.399	-34.4467
9122.802734	83.557	-31.2473
9188.910156	82.680	-23.5573
9255.497070	82.207	-10.4392
9322.566406	82.476	3.5855
9390.121094	83.257	12.9245
9458.166016	84.095	17.4698
9526.704102	84.761	19.5185
9595.738281	85.249	20.7276
9665.273438	85.620	21.6446
9735.311523	85.903	22.1505
9805.857422	86.074	22.1278
9876.915039	86.102	21.8212
9948.487305	85.996	21.6924
10020.578125	85.813	22.0391
10093.191406	85.621	22.7556
10166.331055	85.448	23.4850
10240.000000	85.279	24.0110
10314.203125	85.098	24.4259
10388.944336	84.920	24.9338
10464.226562	84.787	25.5738
10540.054688	84.737	26.1535
10616.432617	84.780	26.3954
10693.363281	84.893	26.0897
10770.852539	85.037	25.1624
10848.902344	85.165	23.7225
10927.517578	85.245	22.0812
11006.703125	85.282	20.6400
11086.461914	85.315	19.6508
11166.798828	85.391	19.0337
11247.718750	85.517	18.4821
11329.223633	85.661	17.7709
11411.320312	85.786	16.8981
11494.011719	85.871	15.9506
11577.301758	85.903	14.9719
11661.195312	85.862	14.0375
11745.697266	85.739	13.3868
11830.811523	85.560	13.3430
11916.542969	85.388	14.0155
12002.894531	85.284	15.1183
12089.873047	85.265	16.1845
12177.480469	85.304	16.9172
12265.723633	85.371	17.2477
12354.606445	85.445	17.2058
12444.132812	85.512	16.8882
12534.308594	85.574	16.4407
12625.136719	85.648	15.9048
12716.624023	85.736	15.1387
12808.773438	85.801	14.0516
12901.591797	85.804	12.8629
12995.082031	85.744	11.9705
13089.250000	85.658	11.5784
13184.099609	85.577	11.6036
13279.636719	85.501	11.9801
13375.867188	85.440	12.8242
13472.793945	85.436	14.1475
13570.422852	85.527	15.5889
13668.759766	85.700	16.6231
13767.809570	85.899	16.9419
13867.577148	86.061	16.5652
13968.067383	86.149	15.7535
14069.285156	86.163	14.8356
14171.237305	86.131	13.9669
14273.927734	86.072	13.0493
14377.362305	85.963	12.0263
14481.546875	85.781	11.2000
14586.486328	85.556	11.0612
14692.185547	85.374	11.7671
14798.651367	85.307	12.9394
14905.888672	85.367	14.0667
15013.902344	85.532	14.8282
15122.700195	85.768	14.9410
15232.285156	86.010	14.1443
15342.664062	86.169	12.5235
15453.843750	86.195	10.5813
15565.829102	86.102	8.8896
15678.625000	85.949	7.7425
15792.239258	85.800	7.1039
15906.675781	85.695	6.7436
16021.942383	85.644	6.3989
16138.043945	85.636	5.9356
