* Measurement data measured by REW V5.30.8
* Source: Trace Arithmetic result A + B
* Format: Trace Arithmetic result A + B
* Dated: Feb 10, 2024 1:40:37 PM
* REW Settings:
*  C-weighting compensation: Off
*  Target level: 75.0 dB
* Note: Trace Arithmetic A plus B A = Port Near Field B = Woofer Near Field
* Measurement: Woofer Port Near Field
* Smoothing: 1/24 octave
* Frequency Step: 1/96 octave
* Start Frequency: 20.145 Hz
*
* Freq(Hz)	SPL(dB)	Phase(degrees)
20.144928	84.9824	178.1583
20.290907	85.0848	177.642
20.437943	85.2308	176.8569
20.586044	85.3973	176.0332
20.73522	85.5708	175.1907
20.885475	85.7458	174.3096
21.036821	85.9224	173.4875
21.189262	86.099	172.6826
21.342808	86.277	171.8493
21.497467	86.4586	171.0741
21.653246	86.6453	170.3045
21.810154	86.837	169.5327
21.968201	87.033	168.7002
22.12739	87.2357	167.889
22.287735	87.4425	167.0438
22.449242	87.6505	166.1088
22.611917	87.8613	165.1763
22.775772	88.0712	164.2001
22.940815	88.2752	163.1372
23.107054	88.477	162.0942
23.274498	88.6739	161.0342
23.443153	88.8639	159.9215
23.613033	89.0519	158.8662
23.784142	89.2379	157.8276
23.956491	89.4199	156.7606
24.130091	89.6069	155.7635
24.304947	89.797	154.7802
24.481071	89.99	153.7496
24.65847	90.1891	152.7606
24.837156	90.3923	151.7525
25.017136	90.5986	150.7168
25.198421	90.8026	149.6
25.38102	91.0058	148.5121
25.564941	91.2071	147.4114
25.750195	91.4011	146.2606
25.93679	91.5955	145.1806
26.124741	91.7908	144.131
26.314051	91.9868	143.0592
26.504732	92.1933	142.0658
26.696796	92.4118	141.0748
26.890253	92.6408	139.9968
27.085112	92.8854	138.9045
27.281382	93.14	137.7031
27.479073	93.394	136.3084
27.678198	93.6466	134.8188
27.878765	93.8853	133.1861
28.080786	94.0983	131.3782
28.284271	94.2851	129.5595
28.489231	94.4399	127.7308
28.695675	94.5618	125.9653
28.903616	94.6518	124.2692
29.113064	94.7256	122.8234
29.324028	94.7917	121.6062
29.536524	94.8617	120.5682
29.750557	94.9548	119.8004
29.966141	95.0798	119.1835
30.183289	95.2408	118.5641
30.40201	95.441	117.9731
30.622314	95.6712	117.2664
30.844217	95.9162	116.33
31.067726	96.1705	115.2723
31.292856	96.4189	114.0482
31.519617	96.6519	112.6338
31.74802	96.8704	111.2062
31.978081	97.0749	109.753
32.209808	97.2629	108.2451
32.443211	97.4494	106.8321
32.67831	97.635	105.4481
32.915108	97.8238	104.0772
33.153625	98.0138	102.6258
33.393871	98.2116	101.2012
33.635857	98.4085	99.7205
33.879597	98.5975	98.1124
34.125103	98.7814	96.5221
34.372387	98.9544	94.9035
34.621464	99.1124	93.216
34.872345	99.2645	91.6215
35.125042	99.4097	90.0712
35.379574	99.5467	88.5048
35.635948	99.689	87.0598
35.89418	99.8343	85.657
36.154285	99.9793	84.209
36.416275	100.1337	82.8389
36.680161	100.2932	81.4602
36.945961	100.4512	79.9872
37.213688	100.6159	78.5536
37.483353	100.7805	77.0822
37.754974	100.9444	75.5701
38.028561	101.1014	73.9435
38.304131	101.2592	72.3527
38.581699	101.4132	70.7303
38.861279	101.5562	69.0085
39.142883	101.6983	67.3447
39.426529	101.8354	65.671
39.712231	101.9624	63.9153
40	102.0886	62.2298
40.289856	102.21	60.5384
40.581814	102.32	58.7639
40.875885	102.4276	57.0644
41.172089	102.5281	55.3723
41.47044	102.6131	53.6233
41.77095	102.6958	51.9901
42.073643	102.7726	50.4091
42.378525	102.8416	48.808
42.685616	102.9145	47.3422
42.994934	102.9905	45.9205
43.306492	103.0667	44.5257
43.620308	103.1377	43.0607
43.936401	103.2118	41.678
44.25478	103.2812	40.2977
44.57547	103.3372	38.846
44.898483	103.3937	37.4984
45.223835	103.4453	36.1802
45.551544	103.4903	34.8073
45.88163	103.543	33.5366
46.214108	103.5999	32.2695
46.548996	103.6529	30.9068
46.886307	103.7148	29.6076
47.226067	103.7779	28.2873
47.568283	103.8319	26.8673
47.912983	103.8911	25.5283
48.260181	103.9495	24.1942
48.609894	103.9985	22.7827
48.962143	104.055	21.4662
49.31694	104.1106	20.1552
49.674313	104.1654	18.8458
50.034271	104.2114	17.4476
50.396843	104.2633	16.1375
50.762039	104.3134	14.8299
51.129883	104.3534	13.4389
51.500389	104.4006	12.1455
51.873581	104.4469	10.8628
52.249481	104.4849	9.5022
52.628101	104.5324	8.2439
53.009464	104.5801	6.9964
53.393593	104.6211	5.6639
53.780506	104.6698	4.4218
54.170223	104.7198	3.174
54.562763	104.7588	1.827
54.958145	104.8029	0.5703
55.356396	104.8441	-0.678600000000001
55.75753	104.8826	-1.9132
56.161572	104.9116	-3.2299
56.568542	104.9502	-4.4549
56.978462	104.9879	-5.6954
57.39135	105.0119	-7.0489
57.807232	105.0379	-8.3115
58.226128	105.059	-9.5485
58.648056	105.065	-10.8322
59.073048	105.0843	-11.9719
59.501114	105.1067	-13.0854
59.932281	105.1217	-14.2973
60.366577	105.1423	-15.4232
60.80402	105.1531	-16.5312
61.244629	105.1441	-17.6705
61.688435	105.1451	-18.6127
62.135452	105.1532	-19.4592
62.585712	105.1672	-20.3543
63.039234	105.2076	-21.1642
63.49604	105.2592	-22.0251
63.956161	105.3128	-22.9403
64.419617	105.3528	-23.9879
64.886421	105.4028	-24.9511
65.356621	105.4519	-25.9215
65.830215	105.4899	-27.0029
66.307251	105.5392	-28.0036
66.787743	105.5897	-29.0228
67.271713	105.6267	-30.1574
67.759193	105.6744	-31.2071
68.250206	105.7213	-32.2722
68.744774	105.7523	-33.4572
69.242928	105.7933	-34.5695
69.74469	105.8277	-35.7101
70.250084	105.8397	-36.9654
70.759148	105.8532	-38.0972
71.271896	105.8569	-39.1538
71.788361	105.8439	-40.1972
72.308571	105.8518	-41.0313
72.83255	105.874	-41.8064
73.360321	105.9123	-42.5959
73.891922	105.9473	-43.5555
74.427376	105.9999	-44.5025
74.966705	106.0507	-45.5264
75.509949	106.0807	-46.712
76.057121	106.1177	-47.8602
76.608261	106.143	-49.0863
77.163399	106.129	-50.4748
77.722557	106.0944	-51.7312
78.285767	106.0251	-52.7923
78.853058	105.9261	-53.6067
79.424461	105.861	-53.9502
80	105.8452	-54.0722
80.579712	105.8652	-54.3007
81.163628	105.9375	-54.5982
81.75177	106.0241	-55.1027
82.344177	106.0941	-55.8711
82.94088	106.1729	-56.6433
83.541901	106.2449	-57.4762
84.147285	106.3102	-58.3448
84.75705	106.3522	-59.3394
85.371231	106.4077	-60.2617
85.989868	106.4575	-61.2151
86.612984	106.4795	-62.2924
87.240616	106.5065	-63.2664
87.872803	106.5207	-64.1825
88.50956	106.5097	-65.0866
89.15094	106.5241	-65.7782
89.796967	106.5548	-66.4203
90.44767	106.5818	-67.1995
91.103088	106.6327	-67.9713
91.76326	106.6799	-68.8282
92.428215	106.6959	-69.8238
93.097992	106.7203	-70.7041
93.772614	106.7359	-71.5119
94.452133	106.7349	-72.3303
95.136566	106.7638	-73.0129
95.825966	106.804	-73.7277
96.520363	106.8503	-74.525
97.219788	106.8723	-75.5258
97.924286	106.8999	-76.5372
98.633881	106.8968	-77.57
99.348625	106.8408	-78.5454
100.068542	106.7968	-79.1385
100.793686	106.7741	-79.4753
101.524078	106.7681	-79.8194
102.259766	106.8146	-80.1419
103.000778	106.8795	-80.5973
103.747162	106.9275	-81.2804
104.498962	106.9955	-81.997
105.256203	107.0527	-82.8213
106.018929	107.0717	-83.8116
106.787186	107.0902	-84.7177
107.561012	107.0889	-85.5217
108.340446	107.0589	-86.2398
109.125526	107.0629	-86.723
109.91629	107.0851	-87.1484
110.712791	107.1245	-87.5921
111.51506	107.1505	-88.1737
112.323143	107.2061	-88.735
113.137085	107.265	-89.3644
113.956924	107.3	-90.1457
114.7827	107.3531	-90.9091
115.614464	107.3954	-91.716
116.452255	107.4004	-92.5977
117.296112	107.4199	-93.3352
118.146095	107.4407	-93.9848
119.002228	107.4447	-94.6556
119.864563	107.4846	-95.2523
120.733154	107.5338	-95.9087
121.60804	107.5588	-96.7272
122.489258	107.6033	-97.5462
123.376869	107.6358	-98.3992
124.270905	107.6318	-99.3019
125.171425	107.6477	-100.0696
126.078468	107.6666	-100.7782
126.992081	107.6949	-101.4661
127.912323	107.7059	-102.2693
128.839233	107.7453	-103.1243
129.772842	107.7729	-104.1228
130.713242	107.7469	-105.2445
131.660431	107.7217	-106.2232
132.614502	107.6817	-107.0707
133.575485	107.6097	-107.875
134.543427	107.5588	-108.5029
135.518387	107.5111	-108.9621
136.500412	107.4531	-109.3348
137.489548	107.4446	-109.6379
138.485855	107.4464	-110.0123
139.48938	107.4214	-110.4438
140.500168	107.4312	-110.7506
141.518295	107.4592	-111.0454
142.543793	107.4742	-111.469
143.576721	107.5264	-111.9527
144.617142	107.5786	-112.5659
145.6651	107.6221	-113.3162
146.720642	107.6131	-114.214
147.783844	107.6038	-115.0328
148.854752	107.5766	-115.6741
149.933411	107.5226	-116.1372
151.019897	107.5195	-116.419
152.114243	107.5465	-116.6702
153.216522	107.5705	-117.0532
154.326797	107.6407	-117.5775
155.445114	107.709	-118.365
156.571533	107.721	-119.445
157.706116	107.7153	-120.5629
158.848923	107.6678	-121.4936
160	107.5818	-122.1493
161.159424	107.5435	-122.613
162.327255	107.5172	-123.1337
163.50354	107.4542	-123.7594
164.688354	107.402	-124.2591
165.88176	107.3489	-124.5265
167.083801	107.3169	-124.6171
168.294571	107.2829	-124.7172
169.514099	107.2999	-124.8665
170.742462	107.326	-125.0895
171.979736	107.33	-125.3887
173.225967	107.3713	-125.7194
174.481232	107.4206	-126.1266
175.745605	107.4426	-126.6785
177.019119	107.4889	-127.3849
178.30188	107.5102	-128.2488
179.593933	107.4662	-129.1518
180.89534	107.4216	-129.8923
182.206177	107.3621	-130.4068
183.52652	107.2751	-130.6936
184.85643	107.2386	-130.7656
186.195984	107.2321	-130.7551
187.545227	107.2241	-130.7772
188.904266	107.2716	-130.8481
190.273132	107.3442	-131.0296
191.651932	107.4347	-131.4387
193.040726	107.4907	-132.1509
194.439575	107.5502	-133.1122
195.848572	107.5678	-134.1589
197.267761	107.5198	-135.1071
198.69725	107.4813	-135.8723
200.137085	107.4408	-136.4649
201.587372	107.3778	-136.9597
203.048157	107.3523	-137.4664
204.519531	107.3268	-138.0077
206.001556	107.2638	-138.525
207.494324	107.2262	-139.0025
208.997925	107.1856	-139.4289
210.512405	107.1126	-139.7727
212.037857	107.074	-140.0216
213.574371	107.0492	-140.1877
215.122025	107.0102	-140.3553
216.680893	107.0115	-140.6045
218.251053	107.0177	-140.8892
219.832581	107.0298	-141.2331
221.425583	107.0118	-141.6637
223.030121	107.0147	-142.227
224.646286	106.9997	-142.8383
226.27417	106.9377	-143.41
227.913849	106.8875	-143.9829
229.565399	106.8163	-144.5077
231.228928	106.6923	-144.8536
232.90451	106.584	-144.9468
234.592224	106.4875	-144.6676
236.292191	106.4025	-144.0457
238.004456	106.406	-143.4136
239.729126	106.4533	-142.9713
241.466309	106.4963	-142.6941
243.21608	106.5805	-142.5961
244.978516	106.6787	-142.6142
246.753738	106.7567	-142.7713
248.541809	106.8656	-143.1869
250.34285	106.9694	-143.799
252.156937	107.0591	-144.6279
253.984161	107.0901	-145.6573
255.824646	107.0996	-146.8839
257.678467	107.054	-148.0103
259.545685	106.943	-148.7807
261.426483	106.8533	-149.254
263.320862	106.7814	-149.4587
265.229004	106.7114	-149.5141
267.15097	106.6933	-149.7086
269.086853	106.6781	-150.0125
271.036774	106.6291	-150.2507
273.000824	106.6097	-150.4476
274.979095	106.6031	-150.5876
276.97171	106.5821	-150.6807
278.97876	106.6004	-150.8705
281.000336	106.6284	-151.1429
283.036591	106.6324	-151.4903
285.087585	106.6532	-152.0226
287.153442	106.661	-152.5841
289.234283	106.6585	-153.1407
291.3302	106.6205	-153.6505
293.441284	106.5938	-154.2476
295.567688	106.5479	-154.8021
297.709503	106.4609	-155.1249
299.866821	106.4037	-155.2573
302.039795	106.3744	-155.1941
304.228485	106.3574	-155.1069
306.433044	106.3859	-155.2994
308.653595	106.4112	-155.6888
310.890228	106.3942	-156.0982
313.143066	106.3883	-156.5379
315.412231	106.3791	-156.8945
317.697845	106.3541	-157.0989
320	106.3738	-157.3832
322.318848	106.4072	-157.8323
324.65451	106.4112	-158.4538
327.00708	106.4104	-159.3369
329.376709	106.3714	-160.2392
331.763519	106.2981	-161.0377
334.167603	106.1831	-161.4516
336.589142	106.0966	-161.6472
339.028198	106.0339	-161.7031
341.484924	105.9819	-161.6449
343.959473	105.979	-161.8204
346.451935	105.9818	-162.1921
348.962463	105.9498	-162.6334
351.491211	105.9184	-163.185
354.038239	105.8748	-163.6167
356.60376	105.8138	-163.9178
359.187866	105.7729	-164.4368
361.79068	105.7078	-165.0638
364.412354	105.5838	-165.507
367.05304	105.4604	-165.6901
369.71286	105.3519	-165.5275
372.391968	105.2549	-165.1361
375.090454	105.203	-164.9034
377.808533	105.149	-164.7963
380.546265	105.0657	-164.651
383.303864	104.9297	-164.0932
386.081451	104.8062	-163.085
388.87915	104.7133	-161.4471
391.697144	104.6863	-159.0569
394.535522	104.8364	-156.319
397.394501	105.1761	-154.0992
400.27417	105.5921	-153.6131
403.174744	105.9526	-155.2356
406.096313	106.1449	-157.811
409.039062	106.1759	-160.1883
412.003113	106.149	-162.1752
414.988647	106.0767	-163.7708
417.99585	105.9347	-164.9437
421.024811	105.7673	-165.7799
424.075714	105.6036	-166.0904
427.148743	105.4756	-165.9802
430.244049	105.4267	-165.9849
433.361786	105.4006	-166.21
436.502106	105.3612	-166.6452
439.665161	105.2822	-166.9513
442.851166	105.2155	-167.0714
446.060242	105.1777	-166.8976
449.292572	105.1707	-166.6633
452.54834	105.2076	-166.8249
455.827698	105.2363	-167.2299
459.130798	105.2233	-167.6807
462.457855	105.1868	-168.3149
465.809021	105.107	-168.7004
469.184448	105.015	-168.4593
472.584381	104.9911	-168.073
476.008911	105.0138	-167.8911
479.458252	105.0268	-167.9087
482.932617	105.0423	-168.0308
486.432159	105.0696	-167.9298
489.957031	105.1196	-167.7591
493.507477	105.2038	-168.0296
497.083618	105.2717	-168.5791
500.685699	105.3114	-169.2057
504.313873	105.3104	-169.736
507.968323	105.3048	-170.2418
511.649292	105.3021	-170.5396
515.356934	105.3031	-170.7228
519.09137	105.3241	-171.1336
522.852966	105.343	-171.5253
526.641724	105.357	-171.8364
530.458008	105.3795	-172.4469
534.301941	105.373	-173.1789
538.173706	105.318	-173.7038
542.073547	105.2571	-174.0448
546.001648	105.2091	-174.0825
549.958191	105.1811	-173.8899
553.94342	105.1959	-173.8611
557.95752	105.2285	-173.9303
562.000671	105.2575	-174.0169
566.073181	105.2919	-174.3998
570.175171	105.2981	-174.8478
574.306885	105.2822	-175.0953
578.468567	105.2672	-174.8941
582.6604	105.3149	-174.6746
586.882568	105.3935	-174.8613
591.135376	105.4285	-175.3085
595.419006	105.436	-175.65
599.733643	105.4583	-175.6082
604.07959	105.5203	-175.4169
608.45697	105.6283	-175.6923
612.866089	105.7101	-176.4927
617.30719	105.7051	-177.2963
621.780457	105.6669	-177.6531
626.286133	105.6624	-177.5134
630.824463	105.6994	-177.3897
635.395691	105.7537	-177.6227
640	105.8059	-177.7917
644.637695	105.8629	-177.84
649.309021	105.9389	-178.1199
654.01416	106.0147	-178.4377
658.753418	106.0984	-178.7887
663.527039	106.1734	-179.205
668.335205	106.248	-179.8191
673.178284	106.3003	179.4786
678.056396	106.3143	178.9161
682.969849	106.3254	178.4773
687.918945	106.3445	178.2079
692.90387	106.3775	178.169
697.924927	106.4494	178.0134
702.982422	106.5381	177.726
708.076477	106.6331	177.5417
713.20752	106.7726	177.2375
718.375732	106.938	176.5201
723.58136	107.067	175.3539
728.824707	107.1403	173.8507
734.106079	107.1514	172.4593
739.42572	107.0994	171.3227
744.783936	107.0224	170.7145
750.180908	107.0133	171.0009
755.617065	107.151	171.3402
761.092529	107.387	170.9516
766.607727	107.6505	169.5276
772.162903	107.8929	167.4806
777.758301	108.1259	165.0685
783.394287	108.3562	161.6632
789.071045	108.4793	156.9275
794.789001	108.3783	151.3773
800.54834	108.0254	145.5207
806.349487	107.4133	140.0261
812.192627	106.5583	135.4667
818.078125	105.5211	131.9494
824.006226	104.3447	129.4695
829.977295	103.0457	127.9129
835.991699	101.6443	127.2633
842.049622	100.2087	129.7622
848.151428	99.1757	147.0482
854.297485	99.461	-165.9243
860.488098	100.9722	-144.9139
866.723572	102.6502	-144.7188
873.004211	103.9472	-149.6302
879.330322	104.8131	-155.6279
885.702332	105.31	-161.2552
892.120483	105.543	-165.7345
898.585144	105.6497	-169.2142
905.09668	105.6703	-172.0765
911.655396	105.6013	-174.205
918.261597	105.5018	-175.5702
924.91571	105.4202	-176.4614
931.618042	105.3332	-177.2747
938.368896	105.1886	-178.0357
945.168762	104.9838	-177.7388
952.017822	104.8638	-175.9468
958.916504	104.9319	-174.238
965.865234	105.0869	-173.5511
972.864319	105.2329	-173.3085
979.914062	105.3899	-173.4144
987.014954	105.5327	-174.1097
994.167236	105.6094	-175.285
1001.371399	105.5974	-176.4841
1008.627747	105.51	-177.6777
1015.936646	105.3396	-178.5918
1023.298584	105.0926	-178.8239
1030.713867	104.8371	-178.1453
1038.182739	104.6454	-176.994
1045.705933	104.4984	-175.9531
1053.283447	104.3448	-175.0977
1060.916016	104.1619	-173.8553
1068.603882	103.9879	-171.6814
1076.347412	103.9152	-168.612
1084.147095	104.0231	-164.8706
1092.003296	104.3711	-160.98
1099.916382	104.9541	-158.201
1107.886841	105.632	-157.4888
1115.915039	106.2199	-158.8579
1124.001343	106.6089	-161.2416
1132.146362	106.8387	-163.7473
1140.350342	106.9653	-166.1388
1148.61377	106.9893	-168.3403
1156.937134	106.9519	-170.0264
1165.320801	106.9304	-171.1477
1173.765137	106.9594	-172.1802
1182.270752	107.0229	-173.5313
1190.838013	107.0834	-175.3649
1199.467285	107.0564	-177.7345
1208.15918	106.8956	179.9252
1216.91394	106.6589	178.2828
1225.732178	106.4279	177.3011
1234.61438	106.2431	176.5206
1243.560913	106.1082	175.7647
1252.572266	105.9982	174.8247
1261.648926	105.8813	173.574
1270.791382	105.7394	172.3018
1280	105.5933	171.1045
1289.275391	105.4593	169.9446
1298.618042	105.3533	168.5422
1308.02832	105.2651	166.7411
1317.506836	105.1451	164.3986
1327.054077	104.9578	161.4898
1336.67041	104.6605	157.9642
1346.356567	104.1785	154.0973
1356.112793	103.4573	150.451
1365.939697	102.4839	148.0589
1375.837891	101.3089	148.3582
1385.807739	100.1354	153.7184
1395.849854	99.426	164.5384
1405.964844	99.448	174.1286
1416.152954	99.8794	178.6454
1426.415039	100.4139	-179.7756
1436.751465	100.9329	179.9511
1447.16272	101.3522	178.1374
1457.649414	101.6326	175.3759
1468.212158	101.7468	171.9454
1478.85144	101.6658	168.3718
1489.567871	101.4361	165.0244
1500.361816	101.0922	161.8536
1511.234131	100.6252	159.1022
1522.185059	100.0414	156.877
1533.215454	99.3265	155.5961
1544.325806	98.5285	155.8018
1555.516602	97.7306	157.0343
1566.788574	96.9426	159.4148
1578.14209	96.2166	163.4002
1589.578003	95.6585	168.7029
1601.09668	95.3105	174.8673
1612.698975	95.2115	-178.0989
1624.385254	95.4114	-171.4567
1636.15625	95.8423	-166.421
1648.012451	96.3873	-163.2306
1659.95459	96.9141	-161.8824
1671.983398	97.3199	-161.7169
1684.099243	97.5816	-162.0712
1696.302856	97.6796	-162.5041
1708.594971	97.6193	-162.3773
1720.976196	97.484	-160.8792
1733.447144	97.411	-157.6357
1746.008423	97.5807	-152.7078
1758.660645	98.1062	-147.8314
1771.404663	98.8212	-145.4036
1784.240967	99.4539	-145.5866
1797.170288	99.8674	-146.924
1810.193359	100.0764	-147.9748
1823.310791	100.2179	-148.0507
1836.523193	100.4064	-147.6552
1849.831421	100.6394	-147.3873
1863.236084	100.8738	-147.5872
1876.737793	101.0443	-148.1965
1890.337524	101.1293	-148.6419
1904.035645	101.1776	-148.7847
1917.833008	101.2111	-148.6772
1931.730469	101.2454	-148.3549
1945.728638	101.2824	-147.9014
1959.828125	101.3287	-147.382
1974.029907	101.387	-146.8537
1988.334473	101.44	-146.3743
2002.742798	101.4773	-145.9632
2017.255493	101.4924	-145.4801
2031.873291	101.5004	-144.7487
2046.597168	101.5207	-143.9422
2061.427734	101.5589	-143.0842
2076.365479	101.6149	-142.2459
2091.411865	101.675	-141.6128
2106.566895	101.7222	-141.0825
2121.832031	101.7522	-140.5859
2137.207764	101.7672	-140.0671
2152.694824	101.7823	-139.4429
2168.294189	101.8023	-138.7789
2184.006592	101.8245	-138.2331
2199.832764	101.8375	-137.7334
2215.773682	101.8454	-137.2078
2231.830078	101.8494	-136.6413
2248.002686	101.8515	-136.08
2264.292725	101.8515	-135.5429
2280.700684	101.8495	-134.9631
2297.227539	101.8505	-134.3926
2313.874268	101.8584	-133.8025
2330.641602	101.8734	-133.1883
2347.530273	101.8894	-132.6699
2364.541504	101.8982	-132.1529
2381.676025	101.9032	-131.5212
2398.93457	101.9121	-130.817
2416.318359	101.9389	-129.9744
2433.827881	101.9949	-129.0496
2451.464355	102.0829	-128.2238
2469.22876	102.1887	-127.5136
2487.121826	102.3017	-126.8203
2505.144531	102.4195	-126.1478
2523.297852	102.5573	-125.4247
2541.582764	102.721	-124.722
2560	102.917	-124.0629
2578.550781	103.1468	-123.5598
2597.236084	103.4076	-123.3073
2616.056641	103.6746	-123.4012
2635.013672	103.9103	-123.9189
2654.108154	104.086	-124.585
2673.34082	104.208	-125.0487
2692.713135	104.3137	-125.1856
2712.225586	104.4374	-125.041
