* Measurement data measured by REW V5.20.13
* Source: default [default], no input selected, 2, volume: no control
* Format: 256k Log Swept Sine, 1 sweep at 0.0 dBFS, at 48000 Hz
* Dated: Feb 9, 2024 2:24:44 PM
* Sense Resistor: 99.8
* Lead resistance: 0.000
* Input resistance: 20000.000
* Calibration factor: 1.0000
* Note: 
* Measurement: DC160 and Vifa DX25 Woofer
* Smoothing: 1/24 octave
* Frequency Step: 1/96 octave
* Start Frequency: 20.145 Hz
*
* Freq(Hz)	Z(Ohms)	Phase(degrees)
20.144928	20.840445	43.5952
20.290907	21.031973	43.5682
20.437943	21.224886	43.5155
20.586044	21.535503	43.4095
20.735220	22.068781	43.2528
20.885475	22.643055	43.0529
21.036821	23.213820	42.8152
21.189262	23.810163	42.5289
21.342808	24.428295	42.1828
21.497467	25.070086	41.7779
21.653246	25.750984	41.2959
21.810154	26.473667	40.7372
21.968201	27.235092	40.0888
22.127390	28.035995	39.3432
22.287735	28.875574	38.4952
22.449242	29.751738	37.5307
22.611917	30.665239	36.4486
22.775772	31.610041	35.2296
22.940815	32.589153	33.8733
23.107054	33.585506	32.3607
23.274498	34.602112	30.6863
23.443153	35.614662	28.8413
23.613033	36.616379	26.8153
23.784142	37.585636	24.6111
23.956491	38.497459	22.2243
24.130091	39.339558	19.6620
24.304947	40.071526	16.9378
24.481071	40.688953	14.0575
24.658470	41.148453	11.0592
24.837156	41.449352	7.9458
25.017136	41.561451	4.7794
25.198421	41.484642	1.5613
25.381020	41.214676	-1.6323
25.564941	40.751461	-4.7998
25.750195	40.119835	-7.8671
25.936790	39.320820	-10.8317
26.124741	38.399605	-13.6381
26.314051	37.359108	-16.2838
26.504732	36.249199	-18.7381
26.696796	35.074574	-21.0001
26.890253	33.876549	-23.0597
27.085112	32.661564	-24.9184
27.281382	31.456825	-26.5776
27.479073	30.270384	-28.0435
27.678198	29.116348	-29.3199
27.878765	28.003284	-30.4218
28.080786	26.937531	-31.3517
28.284271	25.924496	-32.1357
28.489231	24.966515	-32.7763
28.695675	24.062637	-33.3030
28.903616	23.212132	-33.7182
29.113064	22.409927	-34.0405
29.324028	21.653576	-34.2724
29.536524	20.940001	-34.4193
29.750557	20.266157	-34.4877
29.966141	19.631498	-34.4792
30.183289	19.032488	-34.4024
30.402010	18.468201	-34.2588
30.622314	17.936039	-34.0525
30.844217	17.434185	-33.7883
31.067726	16.962017	-33.4681
31.292856	16.517319	-33.1014
31.519617	16.098911	-32.6917
31.748020	15.704972	-32.2447
31.978081	15.332792	-31.7634
32.209808	14.981686	-31.2481
32.443211	14.650061	-30.6990
32.678310	14.337811	-30.1177
32.915108	14.044824	-29.5055
33.153625	13.770245	-28.8691
33.393871	13.512599	-28.2106
33.635857	13.270639	-27.5321
33.879597	13.042010	-26.8315
34.125103	12.826099	-26.1082
34.372387	12.622222	-25.3614
34.621464	12.429308	-24.5935
34.872345	12.246700	-23.8052
35.125042	12.073834	-22.9973
35.379574	11.910339	-22.1721
35.635948	11.756178	-21.3333
35.894180	11.611220	-20.4842
36.154285	11.475080	-19.6289
36.416275	11.347197	-18.7696
36.680161	11.227155	-17.9066
36.945961	11.114462	-17.0398
37.213688	11.008423	-16.1659
37.483353	10.908953	-15.2811
37.754974	10.816150	-14.3832
38.028561	10.730398	-13.4715
38.304131	10.651691	-12.5512
38.581699	10.579201	-11.6268
38.861279	10.511992	-10.7008
39.142883	10.448926	-9.7732
39.426529	10.389696	-8.8411
39.712231	10.334872	-7.9044
40.000000	10.284911	-6.9658
40.289856	10.240098	-6.0292
40.581814	10.200135	-5.0982
40.875885	10.164469	-4.1731
41.172089	10.132725	-3.2524
41.470440	10.104719	-2.3335
41.770950	10.080526	-1.4139
42.073643	10.060637	-0.4915
42.378525	10.045802	0.4315
42.685616	10.036335	1.3504
42.994934	10.032134	2.2615
43.306492	10.032855	3.1625
43.620308	10.038088	4.0541
43.936401	10.047520	4.9391
44.254780	10.061030	5.8226
44.575470	10.078798	6.7098
44.898483	10.101198	7.6045
45.223835	10.128514	8.5077
45.551544	10.160709	9.4184
45.881630	10.197360	10.3346
46.214108	10.237852	11.2551
46.548996	10.281631	12.1793
46.886307	10.328297	13.1071
47.226067	10.377590	14.0389
47.568283	10.429507	14.9763
47.912983	10.484418	15.9219
48.260181	10.543136	16.8789
48.609894	10.607317	17.8511
48.962143	10.679913	18.8385
49.316940	10.764613	19.8311
49.674313	10.863875	20.8052
50.034271	10.976777	21.7319
50.396843	11.098863	22.5935
50.762039	11.224639	23.3943
51.129883	11.350853	24.1581
51.500389	11.477913	24.9129
51.873581	11.608773	25.6772
52.249481	11.746727	26.4561
52.628101	11.893976	27.2462
53.009464	12.051579	28.0419
53.393593	12.220057	28.8383
53.780506	12.399791	29.6317
54.170223	12.591114	30.4194
54.562763	12.794483	31.1999
54.958145	13.010639	31.9724
55.356396	13.240480	32.7348
55.757530	13.484602	33.4841
56.161572	13.743221	34.2175
56.568542	14.016673	34.9344
56.978462	14.305891	35.6346
57.391350	14.612179	36.3167
57.807232	14.936678	36.9782
58.226128	15.280464	37.6182
58.648056	15.645169	38.2373
59.073048	16.033176	38.8351
59.501114	16.446854	39.4076
59.932281	16.887882	39.9494
60.366577	17.357798	40.4564
60.804020	17.858990	40.9271
61.244629	18.394997	41.3595
61.688435	18.970367	41.7509
62.135452	19.590439	42.0970
62.585712	20.260860	42.3914
63.039234	20.987070	42.6266
63.496040	21.774185	42.7941
63.956161	22.627735	42.8844
64.419617	23.553921	42.8863
64.886421	24.559814	42.7866
65.356621	25.653191	42.5703
65.830215	26.842209	42.2189
66.307251	28.134268	41.7117
66.787743	29.534893	41.0277
67.271713	31.047676	40.1441
67.759193	32.673454	39.0359
68.250206	34.409336	37.6768
68.744774	36.246296	36.0387
69.242928	38.165798	34.0959
69.744690	40.142181	31.8335
70.250084	42.144264	29.2497
70.759148	44.140461	26.3504
71.271896	46.099064	23.1351
71.788361	47.971546	19.5895
72.308571	49.686699	15.6957
72.832550	51.146660	11.4577
73.360321	52.244450	6.9240
73.891922	52.895767	2.1842
74.427376	53.048847	-2.6369
74.966705	52.696465	-7.4178
75.509949	51.872540	-12.0392
76.057121	50.637760	-16.4064
76.608261	49.081497	-20.4355
77.163399	47.304131	-24.0667
77.722557	45.425549	-27.2766
78.285767	43.548203	-30.0995
78.853058	41.736748	-32.6226
79.424461	39.995125	-34.9263
80.000000	38.293510	-37.0445
80.579712	36.612053	-38.9558
81.163628	34.958874	-40.6246
81.751770	33.362206	-42.0330
82.344177	31.848532	-43.1885
82.940880	30.434216	-44.1171
83.541901	29.123510	-44.8512
84.147285	27.913748	-45.4223
84.757050	26.799118	-45.8568
85.371231	25.773642	-46.1748
85.989868	24.830780	-46.3936
86.612984	23.962528	-46.5291
87.240616	23.160463	-46.5946
87.872803	22.416695	-46.6018
88.509560	21.724102	-46.5598
89.150940	21.076759	-46.4721
89.796967	20.470524	-46.3380
90.447670	19.902964	-46.1564
91.103088	19.372328	-45.9292
91.763260	18.876461	-45.6617
92.428215	18.412575	-45.3600
93.097992	17.977528	-45.0310
93.772614	17.568369	-44.6810
94.452133	17.182936	-44.3147
95.136566	16.819881	-43.9351
95.825966	16.477982	-43.5420
96.520363	16.155739	-43.1316
97.219788	15.851786	-42.6982
97.924286	15.565777	-42.2401
98.633881	15.298365	-41.7658
99.348625	15.049129	-41.2930
100.068542	14.814760	-40.8373
100.793686	14.590252	-40.4005
101.524078	14.371994	-39.9719
102.259766	14.159172	-39.5385
103.000778	13.953087	-39.0919
103.747162	13.755670	-38.6299
104.498962	13.568140	-38.1548
105.256203	13.390639	-37.6700
106.018929	13.222790	-37.1794
106.787186	13.064158	-36.6875
107.561012	12.913984	-36.1981
108.340446	12.770757	-35.7120
109.125526	12.632746	-35.2262
109.916290	12.498955	-34.7370
110.712791	12.369345	-34.2439
111.515060	12.244421	-33.7486
112.323143	12.124814	-33.2526
113.137085	12.010875	-32.7563
113.956924	11.902498	-32.2594
114.782700	11.799354	-31.7613
115.614464	11.701162	-31.2633
116.452255	11.607597	-30.7683
117.296112	11.518093	-30.2786
118.146095	11.431967	-29.7939
119.002228	11.348760	-29.3117
119.864563	11.268436	-28.8299
120.733154	11.191282	-28.3480
121.608040	11.117687	-27.8664
122.489258	11.047882	-27.3861
123.376869	10.981689	-26.9106
124.270905	10.918550	-26.4435
125.171425	10.857862	-25.9857
126.078468	10.799230	-25.5341
126.992081	10.742492	-25.0831
127.912323	10.687777	-24.6286
128.839233	10.635605	-24.1702
129.772842	10.586512	-23.7129
130.713242	10.540177	-23.2646
131.660431	10.495337	-22.8296
132.614502	10.451047	-22.4050
133.575485	10.407661	-21.9846
134.543427	10.366018	-21.5660
135.518387	10.326157	-21.1500
136.500412	10.287457	-20.7362
137.489548	10.249516	-20.3230
138.485855	10.212315	-19.9105
139.489380	10.175841	-19.5005
140.500168	10.140229	-19.0934
141.518295	10.106096	-18.6864
142.543793	10.074258	-18.2755
143.576721	10.045259	-17.8565
144.617142	10.019324	-17.4267
145.665100	9.996386	-16.9872
146.720642	9.975962	-16.5437
147.783844	9.957087	-16.1051
148.854752	9.938341	-15.6816
149.933411	9.918025	-15.2819
151.019897	9.894754	-14.9080
152.114243	9.868409	-14.5528
153.216522	9.840569	-14.2036
154.326797	9.813799	-13.8498
155.445114	9.790338	-13.4874
156.571533	9.771127	-13.1190
157.706116	9.755489	-12.7501
158.848923	9.741643	-12.3848
160.000000	9.728017	-12.0229
161.159424	9.714288	-11.6621
162.327255	9.701061	-11.3018
163.503540	9.688835	-10.9444
164.688354	9.677454	-10.5921
165.881760	9.666374	-10.2437
167.083801	9.655268	-9.8959
168.294571	9.644214	-9.5467
169.514099	9.633471	-9.1964
170.742462	9.623274	-8.8461
171.979736	9.613806	-8.4966
173.225967	9.605173	-8.1480
174.481232	9.597406	-7.8001
175.745605	9.590578	-7.4520
177.019119	9.584862	-7.1038
178.301880	9.580369	-6.7577
179.593933	9.576812	-6.4170
180.895340	9.573593	-6.0829
182.206177	9.570322	-5.7531
183.526520	9.567089	-5.4245
184.856430	9.564173	-5.0950
186.195984	9.561822	-4.7636
187.545227	9.560285	-4.4300
188.904266	9.559804	-4.0943
190.273132	9.560663	-3.7568
191.651932	9.563259	-3.4188
193.040726	9.567928	-3.0843
194.439575	9.574576	-2.7594
195.848572	9.582479	-2.4493
197.267761	9.590456	-2.1558
198.697250	9.597268	-1.8756
200.137085	9.602015	-1.6012
201.587372	9.604527	-1.3245
203.048157	9.605501	-1.0395
204.519531	9.606134	-0.7438
206.001556	9.607510	-0.4381
207.494324	9.610254	-0.1251
208.997925	9.614561	0.1925
210.512405	9.620393	0.5131
212.037857	9.627724	0.8370
213.574371	9.636735	1.1650
215.122025	9.647767	1.4963
216.680893	9.661135	1.8289
218.251053	9.677166	2.1606
219.832581	9.696312	2.4898
221.425583	9.719097	2.8141
223.030121	9.746124	3.1305
224.646286	9.778025	3.4344
226.274170	9.815283	3.7180
227.913849	9.857928	3.9691
229.565399	9.905019	4.1711
231.228928	9.954002	4.3065
232.904510	10.000427	4.3635
234.592224	10.038468	4.3433
236.292191	10.062465	4.2655
238.004456	10.068860	4.1666
239.729126	10.057529	4.0903
241.466309	10.031807	4.0741
243.216080	9.997293	4.1394
244.978516	9.960208	4.2882
246.753738	9.926065	4.5073
248.541809	9.898708	4.7763
250.342850	9.879844	5.0750
252.156937	9.869292	5.3864
253.984161	9.865601	5.6978
255.824646	9.866590	6.0017
257.678467	9.870037	6.2969
259.545685	9.874426	6.5862
261.426483	9.879297	6.8737
263.320862	9.884971	7.1619
265.229004	9.892014	7.4506
267.150970	9.900758	7.7368
269.086853	9.911058	8.0170
271.036774	9.922443	8.2907
273.000824	9.934509	8.5594
274.979095	9.947143	8.8252
276.971710	9.960372	9.0880
278.978760	9.974208	9.3472
281.000336	9.988660	9.6028
283.036591	10.003736	9.8546
285.087585	10.019333	10.1018
287.153442	10.035241	10.3437
289.234283	10.051310	10.5806
291.330200	10.067416	10.8130
293.441284	10.083287	11.0420
295.567688	10.098522	11.2693
297.709503	10.113003	11.4977
299.866821	10.127145	11.7293
302.039795	10.141670	11.9644
304.228485	10.157189	12.2012
306.433044	10.173884	12.4371
308.653595	10.191477	12.6702
310.890228	10.209460	12.9014
313.143066	10.227498	13.1327
315.412231	10.245588	13.3653
317.697845	10.263916	13.5986
320.000000	10.282724	13.8309
322.318848	10.302301	14.0608
324.654510	10.322779	14.2865
327.007080	10.343828	14.5069
329.376709	10.364821	14.7229
331.763519	10.385373	14.9367
334.167603	10.405581	15.1499
336.589142	10.425745	15.3631
339.028198	10.446054	15.5766
341.484924	10.466557	15.7906
343.959473	10.487247	16.0044
346.451935	10.508258	16.2173
348.962463	10.529943	16.4289
351.491211	10.552680	16.6391
354.038239	10.576612	16.8479
356.603760	10.601593	17.0547
359.187866	10.627201	17.2583
361.790680	10.652851	17.4585
364.412354	10.678019	17.6568
367.053040	10.702579	17.8556
369.712860	10.726912	18.0569
372.391968	10.751626	18.2611
375.090454	10.777168	18.4670
377.808533	10.803658	18.6727
380.546265	10.831004	18.8769
383.303864	10.859232	19.0794
386.081451	10.888708	19.2791
388.879150	10.919904	19.4718
391.697144	10.952635	19.6499
394.535522	10.985239	19.8060
397.394501	11.014726	19.9416
400.274170	11.038720	20.0724
403.174744	11.057782	20.2191
406.096313	11.075144	20.3928
409.039062	11.094073	20.5896
412.003113	11.116089	20.7982
414.988647	11.141110	21.0081
417.995850	11.168245	21.2126
421.024811	11.196435	21.4100
424.075714	11.224918	21.6023
427.148743	11.253527	21.7923
430.244049	11.282626	21.9813
433.361786	11.312675	22.1689
436.502106	11.343833	22.3535
439.665161	11.375873	22.5344
442.851166	11.408349	22.7123
446.060242	11.440937	22.8897
449.292572	11.473562	23.0689
452.548340	11.506212	23.2500
455.827698	11.538934	23.4319
459.130798	11.571932	23.6126
462.457855	11.605392	23.7899
465.809021	11.639248	23.9628
469.184448	11.673316	24.1325
472.584381	11.707674	24.3009
476.008911	11.742587	24.4684
479.458252	11.778077	24.6337
482.932617	11.813828	24.7965
486.432159	11.849670	24.9584
489.957031	11.885975	25.1203
493.507477	11.923267	25.2807
497.083618	11.961579	25.4368
500.685699	12.000456	25.5877
504.313873	12.039447	25.7337
507.968323	12.078418	25.8756
511.649292	12.117465	26.0133
515.356934	12.156620	26.1461
519.091370	12.195599	26.2732
522.852966	12.233957	26.3950
526.641724	12.271428	26.5125
530.458008	12.307907	26.6258
534.301941	12.343095	26.7347
538.173706	12.376480	26.8401
542.073547	12.407785	26.9450
546.001648	12.437267	27.0536
549.958191	12.465523	27.1688
553.943420	12.493134	27.2923
557.957520	12.520466	27.4244
562.000671	12.547701	27.5646
566.073181	12.574982	27.7121
570.175171	12.602530	27.8662
574.306885	12.630659	28.0268
578.468567	12.659744	28.1935
582.660400	12.690188	28.3648
586.882568	12.722288	28.5384
591.135376	12.756096	28.7121
595.419006	12.791553	28.8855
599.733643	12.828650	29.0581
604.079590	12.867304	29.2291
608.456970	12.907197	29.3974
612.866089	12.947830	29.5623
617.307190	12.988728	29.7243
621.780457	13.029653	29.8848
626.286133	13.070663	30.0451
630.824463	13.111860	30.2053
635.395691	13.153152	30.3646
640.000000	13.194464	30.5234
644.637695	13.236071	30.6814
649.309021	13.278460	30.8375
654.014160	13.321964	30.9905
658.753418	13.366533	31.1404
663.527039	13.411712	31.2888
668.335205	13.456968	31.4376
673.178284	13.502171	31.5884
678.056396	13.547638	31.7416
682.969849	13.593750	31.8965
687.918945	13.640581	32.0519
692.903870	13.688046	32.2076
697.924927	13.736325	32.3649
702.982422	13.785961	32.5246
708.076477	13.837521	32.6854
713.207520	13.891260	32.8454
718.375732	13.947126	33.0028
723.581360	14.005014	33.1568
728.824707	14.065125	33.3069
734.106079	14.128016	33.4519
739.425720	14.194312	33.5898
744.783936	14.264656	33.7183
750.180908	14.339935	33.8318
755.617065	14.420559	33.9189
761.092529	14.504730	33.9619
766.607727	14.587049	33.9448
772.162903	14.658808	33.8641
777.758301	14.710991	33.7397
783.394287	14.738710	33.6122
789.071045	14.743856	33.5286
794.789001	14.734483	33.5245
800.548340	14.721811	33.6131
806.349487	14.716134	33.7836
812.192627	14.723689	34.0104
818.078125	14.746467	34.2654
824.006226	14.783712	34.5248
829.977295	14.833014	34.7708
835.991699	14.890971	34.9927
842.049622	14.954062	35.1858
848.151428	15.019200	35.3489
854.297485	15.083469	35.4834
860.488098	15.144106	35.5962
866.723572	15.199615	35.7001
873.004211	15.250638	35.8084
879.330322	15.299408	35.9290
885.702332	15.348494	36.0631
892.120483	15.399713	36.2071
898.585144	15.453749	36.3561
905.096680	15.510338	36.5053
911.655396	15.568888	36.6524
918.261597	15.629187	36.7959
924.915710	15.691231	36.9341
931.618042	15.754481	37.0653
938.368896	15.817888	37.1903
945.168762	15.880821	37.3129
952.017822	15.943671	37.4366
958.916504	16.007202	37.5617
965.865234	16.071764	37.6871
972.864319	16.137524	37.8125
979.914062	16.204651	37.9371
987.014954	16.273024	38.0591
994.167236	16.342312	38.1781
1001.371399	16.412447	38.2946
1008.627747	16.483561	38.4092
1015.936646	16.555779	38.5218
1023.298584	16.629396	38.6323
1030.713867	16.705114	38.7396
1038.182739	16.783796	38.8413
1045.705933	16.866018	38.9338
1053.283447	16.951904	39.0127
1060.916016	17.040974	39.0722
1068.603882	17.131496	39.1036
1076.347412	17.219564	39.0986
1084.147095	17.298626	39.0550
1092.003296	17.361185	38.9853
1099.916382	17.402718	38.9203
1107.886841	17.425699	38.8996
1115.915039	17.440020	38.9512
1124.001343	17.458326	39.0765
1132.146362	17.490005	39.2529
1140.350342	17.538336	39.4497
1148.613770	17.601658	39.6425
1156.937134	17.676470	39.8173
1165.320801	17.759186	39.9651
1173.765137	17.845560	40.0791
1182.270752	17.929794	40.1574
1190.838013	18.005283	40.2098
1199.467285	18.068260	40.2623
1208.159180	18.122276	40.3452
1216.913940	18.176889	40.4695
1225.732178	18.240086	40.6214
1234.614380	18.313646	40.7782
1243.560913	18.395149	40.9250
1252.572266	18.481487	41.0573
1261.648926	18.570532	41.1762
1270.791382	18.661358	41.2846
1280.000000	18.754009	41.3849
1289.275391	18.849091	41.4777
1298.618042	18.947182	41.5617
1308.028320	19.048548	41.6341
1317.506836	19.153257	41.6907
1327.054077	19.261078	41.7257
1336.670410	19.370647	41.7313
1346.356567	19.478416	41.6982
1356.112793	19.577423	41.6209
1365.939697	19.657684	41.5080
1375.837891	19.710960	41.3920
1385.807739	19.738491	41.3218
1395.849854	19.753803	41.3337
1405.964844	19.775238	41.4254
1416.152954	19.814293	41.5622
1426.415039	19.870687	41.7053
1436.751465	19.937101	41.8349
1447.162720	20.007277	41.9520
1457.649414	20.079750	42.0644
1468.212158	20.155989	42.1749
1478.851440	20.237083	42.2797
1489.567871	20.322304	42.3738
1500.361816	20.409485	42.4550
1511.234131	20.496164	42.5244
1522.185059	20.580473	42.5851
1533.215454	20.661568	42.6414
1544.325806	20.739576	42.6976
1555.516602	20.815262	42.7570
1566.788574	20.889767	42.8212
1578.142090	20.964212	42.8900
1589.578003	21.039415	42.9619
1601.096680	21.115774	43.0356
1612.698975	21.193197	43.1102
1624.385254	21.271202	43.1854
1636.156250	21.349224	43.2612
1648.012451	21.426983	43.3381
1659.954590	21.504654	43.4177
1671.983398	21.582718	43.5012
1684.099243	21.661716	43.5888
1696.302856	21.742104	43.6799
1708.594971	21.824274	43.7734
1720.976196	21.908514	43.8682
1733.447144	21.995041	43.9632
1746.008423	22.083904	44.0570
1758.660645	22.174742	44.1486
1771.404663	22.266932	44.2381
1784.240967	22.360153	44.3262
1797.170288	22.454563	44.4135
1810.193359	22.550314	44.4997
1823.310791	22.647373	44.5838
1836.523193	22.745674	44.6647
1849.831421	22.845049	44.7412
1863.236084	22.945107	44.8135
1876.737793	23.045523	44.8827
1890.337524	23.146427	44.9502
1904.035645	23.248138	45.0171
1917.833008	23.350700	45.0837
1931.730469	23.453863	45.1500
1945.728638	23.557352	45.2152
1959.828125	23.661079	45.2785
1974.029907	23.765129	45.3394
1988.334473	23.869495	45.3973
2002.742798	23.973703	45.4523
2017.255493	24.076923	45.5050
2031.873291	24.178692	45.5574
2046.597168	24.279373	45.6118
2061.427734	24.379963	45.6697
2076.365479	24.481544	45.7305
2091.411865	24.584736	45.7926
2106.566895	24.689621	45.8545
2121.832031	24.795969	45.9152
2137.207764	24.903555	45.9740
2152.694824	25.012342	46.0306
2168.294189	25.122248	46.0849
2184.006592	25.232952	46.1375
2199.832764	25.344175	46.1893
2215.773682	25.455803	46.2409
2231.830078	25.567888	46.2921
2248.002686	25.680489	46.3423
2264.292725	25.793415	46.3914
2280.700684	25.906296	46.4398
2297.227539	26.019020	46.4881
2313.874268	26.132011	46.5368
2330.641602	26.245884	46.5854
2347.530273	26.360979	46.6332
2364.541504	26.477266	46.6794
2381.676025	26.594475	46.7242
2398.934570	26.712320	46.7679
2416.318359	26.830696	46.8112
2433.827881	26.949636	46.8540
2451.464355	27.069216	46.8961
2469.228760	27.189503	46.9373
2487.121826	27.310555	46.9777
2505.144531	27.432417	47.0172
2523.297852	27.555017	47.0559
2541.582764	27.678150	47.0940
2560.000000	27.801579	47.1314
2578.550781	27.925207	47.1684
2597.236084	28.049131	47.2046
2616.056641	28.173683	47.2395
