1 //VoltageSource
7 //Lines
  12.6491106406735 //Vrms
  F //Inverted
  118 //position X
  64 //position Y
  0 //overall delay
  20 //Power
  8 //Ohms for Power level
0 //Subckts
27 //Lines Per Subckt
8 //Passives
20 //Lines Per Passive
 2 //PartType
 1 //RefDes
   //Part#
  0.007 //Value
  0.6 //ESR
  300 //Rating
  130 //position X
  74 //position Y
  T  //Is Horizontal
  0 //StepMode
  1 //0short/1val/2open
  -1 //Subckt#,-1 if none
  //No Subckt equation1
  //No Subckt equation2
  F  //Is HighSpec
  0 //Specd component manuf tolerance
  0 //Search tolerance for nom values
  0 //ESR tolerance for search
  0 //Tolerance of chosen part tol
   //vendor of part number
 0 //PartType
 1 //RefDes
   //Part#
  10 //Value
  -1 //ESR
  0.35 //Rating
  142 //position X
  62 //position Y
  T  //Is Horizontal
  1 //StepMode
  1 //0short/1val/2open
  -1 //Subckt#,-1 if none
  //No Subckt equation1
  //No Subckt equation2
  F  //Is HighSpec
  0 //Specd component manuf tolerance
  0 //Search tolerance for nom values
  0 //ESR tolerance for search
  0 //Tolerance of chosen part tol
   //vendor of part number
 0 //PartType
 2 //RefDes
   //Part#
  6.9 //Value
  -1 //ESR
  0.35 //Rating
  145 //position X
  65 //position Y
  F  //Is Horizontal
  1 //StepMode
  1 //0short/1val/2open
  -1 //Subckt#,-1 if none
  //No Subckt equation1
  //No Subckt equation2
  F  //Is HighSpec
  0 //Specd component manuf tolerance
  0 //Search tolerance for nom values
  0 //ESR tolerance for search
  0 //Tolerance of chosen part tol
   //vendor of part number
 1 //PartType
 1 //RefDes
   //Part#
  4.7E-6 //Value
  0.05 //ESR
  250 //Rating
  137 //position X
  77 //position Y
  F  //Is Horizontal
  1 //StepMode
  1 //0short/1val/2open
  -1 //Subckt#,-1 if none
  //No Subckt equation1
  //No Subckt equation2
  F  //Is HighSpec
  0 //Specd component manuf tolerance
  0 //Search tolerance for nom values
  0 //ESR tolerance for search
  0 //Tolerance of chosen part tol
   //vendor of part number
 1 //PartType
 2 //RefDes
   //Part#
  6.8E-6 //Value
  0.05 //ESR
  250 //Rating
  130 //position X
  62 //position Y
  T  //Is Horizontal
  1 //StepMode
  1 //0short/1val/2open
  -1 //Subckt#,-1 if none
  //No Subckt equation1
  //No Subckt equation2
  F  //Is HighSpec
  0 //Specd component manuf tolerance
  0 //Search tolerance for nom values
  0 //ESR tolerance for search
  0 //Tolerance of chosen part tol
   //vendor of part number
 2 //PartType
 3 //RefDes
   //Part#
  0.0004 //Value
  0.35 //ESR
  300 //Rating
  133 //position X
  65 //position Y
  F  //Is Horizontal
  1 //StepMode
  1 //0short/1val/2open
  -1 //Subckt#,-1 if none
  //No Subckt equation1
  //No Subckt equation2
  F  //Is HighSpec
  0 //Specd component manuf tolerance
  0 //Search tolerance for nom values
  0 //ESR tolerance for search
  0 //Tolerance of chosen part tol
   //vendor of part number
 1 //PartType
 3 //RefDes
   //Part#
  2E-5 //Value
  0.05 //ESR
  250 //Rating
  136 //position X
  62 //position Y
  T  //Is Horizontal
  1 //StepMode
  1 //0short/1val/2open
  -1 //Subckt#,-1 if none
  //No Subckt equation1
  //No Subckt equation2
  F  //Is HighSpec
  0 //Specd component manuf tolerance
  0 //Search tolerance for nom values
  0 //ESR tolerance for search
  0 //Tolerance of chosen part tol
   //vendor of part number
 0 //PartType
 3 //RefDes
   //Part#
  10 //Value
  -1 //ESR
  10 //Rating
  142 //position X
  58 //position Y
  T  //Is Horizontal
  1 //StepMode
  1 //0short/1val/2open
  -1 //Subckt#,-1 if none
  //No Subckt equation1
  //No Subckt equation2
  F  //Is HighSpec
  0 //Specd component manuf tolerance
  0 //Search tolerance for nom values
  0 //ESR tolerance for search
  0 //Tolerance of chosen part tol
   //vendor of part number
6 //Grounds
3 //Lines Per Ground
 121 //position X
  66 //position Y
  -1 //Subckt#,-1 if none
 152 //position X
  64 //position Y
  -1 //Subckt#,-1 if none
 152 //position X
  76 //position Y
  -1 //Subckt#,-1 if none
 145 //position X
  68 //position Y
  -1 //Subckt#,-1 if none
 137 //position X
  80 //position Y
  -1 //Subckt#,-1 if none
 133 //position X
  68 //position Y
  -1 //Subckt#,-1 if none
6 //Wires
5 //Lines Per Wire
 127 //End1 X
  62 //End1 Y
  127 //End2 X
  74 //End2 Y
  -1 //Subckt#,-1 if none
 121 //End1 X
  62 //End1 Y
  127 //End2 X
  62 //End2 Y
  -1 //Subckt#,-1 if none
 145 //End1 X
  62 //End1 Y
  152 //End2 X
  62 //End2 Y
  -1 //Subckt#,-1 if none
 133 //End1 X
  74 //End1 Y
  152 //End2 X
  74 //End2 Y
  -1 //Subckt#,-1 if none
 145 //End1 X
  58 //End1 Y
  145 //End2 X
  62 //End2 Y
  -1 //Subckt#,-1 if none
 139 //End1 X
  58 //End1 Y
  139 //End2 X
  62 //End2 Y
  -1 //Subckt#,-1 if none
0 //Texts
6 //Lines Per Text
2 //Drivers
34 //Lines Per Driver
!Driver 0
  1 //RefDes
   //Name
   //PartNumber
  153 //position X
  63 //position Y
  F //Inverted
  F //Muted
  10 //Rating
  0 //dBGain
  0 //Delay
  0 //Xoffs
  0 //Yoffs
  0 //Zoffs
  0 //Htilt
  0 //Vtilt
  0 //dia
  tweeter.frd //FRD filename
  TWEETER.zma //ZMA filename
  T //Phase from Hilbert transform
  400 //Lower Hilbert extrapolation frequency
  15026.295 //Upper Hilbert extrapolation frequency
  8.5 //Lower Extrapolation slope
  6 //Upper Extrapolation slope
  F //Invert Hilbert phase if used
  0 //Hilbert Delay to add
  F //get acoust info from a model
   //ACOUstic FRD filename
   //Vendor name
  6.5  //Nominal Dia.
  0  //rectang. Ht
  0  //rectang. Wt
   //
  F //Z Phase from Hilbert transform
**FRD 1 for driver 0
tweeter.frd //frd filename
* Measurement data measured by REW V5.20.13
* Source: U18dB [plughw:2,0], no input selected, L, volume: no control
* Format: 256k Log Swept Sine, 1 sweep at 0.0 dBFS with no timing reference
* Dated: Feb 21, 2023 1:49:51 PM
* REW Settings:
*  C-weighting compensation: Off
*  Target level: 75.0 dB
* Note: 
* Measurement: Tweeter Far Field
* Smoothing: 1/24 octave
* Frequency Step: 1/96 octave
* Start Frequency: 302.040 Hz
*
* Freq(Hz)	SPL(dB)	Phase(degrees)
302.039795	84.010	-40.8530
304.228485	84.098	-41.1331
306.433044	84.218	-41.5199
308.653595	84.352	-41.9576
310.890228	84.492	-42.4131
313.143066	84.631	-42.8709
315.412231	84.770	-43.3254
317.697845	84.907	-43.7745
320.000000	85.043	-44.2174
322.318848	85.177	-44.6537
324.654510	85.310	-45.0834
327.007080	85.441	-45.5060
329.376709	85.572	-45.9216
331.763519	85.701	-46.3300
334.167603	85.829	-46.7310
336.589142	85.957	-47.1246
339.028198	86.083	-47.5106
341.484924	86.209	-47.8891
343.959473	86.335	-48.2600
346.451935	86.460	-48.6234
348.962463	86.584	-48.9793
351.491211	86.709	-49.3278
354.038239	86.833	-49.6691
356.603760	86.957	-50.0034
359.187866	87.081	-50.3308
361.790680	87.206	-50.6516
364.412354	87.330	-50.9662
367.053040	87.455	-51.2750
369.712860	87.580	-51.5782
372.391968	87.706	-51.8765
375.090454	87.833	-52.1703
377.808533	87.961	-52.4603
380.546265	88.089	-52.7469
383.303864	88.218	-53.0310
386.081451	88.348	-53.3131
388.879150	88.480	-53.5941
391.697144	88.612	-53.8749
394.535522	88.745	-54.1561
397.394501	88.880	-54.4388
400.274170	89.015	-54.7237
403.174744	89.151	-55.0120
406.096313	89.289	-55.3045
409.039062	89.428	-55.6023
412.003113	89.568	-55.9063
414.988647	89.709	-56.2175
417.995850	89.852	-56.5369
421.024811	89.995	-56.8657
424.075714	90.141	-57.2046
427.148743	90.287	-57.5548
430.244049	90.434	-57.9172
433.361786	90.583	-58.2926
436.502106	90.733	-58.6820
439.665161	90.883	-59.0863
442.851166	91.034	-59.5062
446.060242	91.186	-59.9425
449.292572	91.338	-60.3958
452.548340	91.490	-60.8670
455.827698	91.643	-61.3564
459.130798	91.795	-61.8647
462.457855	91.948	-62.3924
465.809021	92.100	-62.9398
469.184448	92.252	-63.5072
472.584381	92.403	-64.0950
476.008911	92.553	-64.7034
479.458252	92.703	-65.3324
482.932617	92.851	-65.9821
486.432159	92.998	-66.6526
489.957031	93.143	-67.3438
493.507477	93.287	-68.0555
497.083618	93.429	-68.7876
500.685699	93.569	-69.5398
504.313873	93.707	-70.3118
507.968323	93.843	-71.1032
511.649292	93.976	-71.9137
515.356934	94.107	-72.7427
519.091370	94.234	-73.5896
522.852966	94.359	-74.4539
526.641724	94.481	-75.3350
530.458008	94.600	-76.2321
534.301941	94.716	-77.1445
538.173706	94.828	-78.0713
542.073547	94.936	-79.0118
546.001648	95.041	-79.9650
549.958191	95.142	-80.9300
553.943420	95.238	-81.9058
557.957520	95.331	-82.8912
562.000671	95.419	-83.8853
566.073181	95.504	-84.8869
570.175171	95.583	-85.8948
574.306885	95.659	-86.9076
578.468567	95.729	-87.9243
582.660400	95.795	-88.9433
586.882568	95.857	-89.9633
591.135376	95.914	-90.9829
595.419006	95.966	-92.0006
599.733643	96.014	-93.0149
604.079590	96.057	-94.0242
608.456970	96.095	-95.0268
612.866089	96.129	-96.0212
617.307190	96.158	-97.0057
621.780457	96.183	-97.9786
626.286133	96.203	-98.9381
630.824463	96.219	-99.8825
635.395691	96.231	-100.8102
640.000000	96.238	-101.7194
644.637695	96.242	-102.6084
649.309021	96.242	-103.4756
654.014160	96.239	-104.3194
658.753418	96.233	-105.1383
663.527039	96.225	-105.9310
668.335205	96.214	-106.6962
673.178284	96.201	-107.4328
678.056396	96.186	-108.1398
682.969849	96.169	-108.8168
687.918945	96.152	-109.4631
692.903870	96.133	-110.0787
697.924927	96.115	-110.6638
702.982422	96.096	-111.2188
708.076477	96.078	-111.7447
713.207520	96.061	-112.2426
718.375732	96.045	-112.7144
723.581360	96.031	-113.1619
728.824707	96.019	-113.5876
734.106079	96.010	-113.9943
739.425720	96.003	-114.3852
744.783936	96.000	-114.7636
750.180908	95.999	-115.1332
755.617065	96.002	-115.4979
761.092529	96.007	-115.8615
766.607727	96.016	-116.2282
772.162903	96.028	-116.6016
777.758301	96.042	-116.9857
783.394287	96.059	-117.3841
789.071045	96.077	-117.7998
794.789001	96.096	-118.2358
800.548340	96.117	-118.6946
806.349487	96.137	-119.1781
812.192627	96.157	-119.6877
818.078125	96.176	-120.2242
824.006226	96.192	-120.7878
829.977295	96.206	-121.3781
835.991699	96.216	-121.9941
842.049622	96.222	-122.6341
848.151428	96.222	-123.2958
854.297485	96.217	-123.9762
860.488098	96.206	-124.6718
866.723572	96.187	-125.3782
873.004211	96.161	-126.0907
879.330322	96.126	-126.8037
885.702332	96.083	-127.5111
892.120483	96.031	-128.2061
898.585144	95.969	-128.8815
905.096680	95.898	-129.5291
911.655396	95.818	-130.1404
918.261597	95.727	-130.7063
924.915710	95.628	-131.2171
931.618042	95.520	-131.6626
938.368896	95.404	-132.0326
945.168762	95.280	-132.3165
952.017822	95.151	-132.5040
958.916504	95.017	-132.5852
965.865234	94.880	-132.5511
972.864319	94.743	-132.3943
979.914062	94.609	-132.1094
987.014954	94.480	-131.6937
994.167236	94.359	-131.1481
1001.371399	94.251	-130.4775
1008.627747	94.158	-129.6918
1015.936646	94.084	-128.8056
1023.298584	94.032	-127.8386
1030.713867	94.005	-126.8152
1038.182739	94.004	-125.7630
1045.705933	94.031	-124.7125
1053.283447	94.083	-123.6945
1060.916016	94.162	-122.7394
1068.603882	94.263	-121.8749
1076.347412	94.383	-121.1250
1084.147095	94.520	-120.5090
1092.003296	94.669	-120.0408
1099.916382	94.825	-119.7288
1107.886841	94.984	-119.5764
1115.915039	95.143	-119.5819
1124.001343	95.296	-119.7396
1132.146362	95.442	-120.0401
1140.350342	95.576	-120.4711
1148.613770	95.697	-121.0179
1156.937134	95.802	-121.6640
1165.320801	95.888	-122.3910
1173.765137	95.955	-123.1794
1182.270752	96.001	-124.0084
1190.838013	96.026	-124.8561
1199.467285	96.029	-125.6994
1208.159180	96.009	-126.5144
1216.913940	95.968	-127.2761
1225.732178	95.906	-127.9591
1234.614380	95.826	-128.5376
1243.560913	95.728	-128.9859
1252.572266	95.617	-129.2800
1261.648926	95.496	-129.3981
1270.791382	95.370	-129.3231
1280.000000	95.245	-129.0439
1289.275391	95.128	-128.5584
1298.618042	95.026	-127.8748
1308.028320	94.946	-127.0137
1317.506836	94.895	-126.0085
1327.054077	94.879	-124.9041
1336.670410	94.900	-123.7545
1346.356567	94.961	-122.6183
1356.112793	95.058	-121.5542
1365.939697	95.187	-120.6152
1375.837891	95.343	-119.8448
1385.807739	95.517	-119.2740
1395.849854	95.701	-118.9197
1405.964844	95.887	-118.7848
1416.152954	96.068	-118.8601
1426.415039	96.238	-119.1258
1436.751465	96.390	-119.5537
1447.162720	96.521	-120.1096
1457.649414	96.629	-120.7546
1468.212158	96.711	-121.4474
1478.851440	96.767	-122.1452
1489.567871	96.798	-122.8053
1500.361816	96.808	-123.3866
1511.234131	96.798	-123.8518
1522.185059	96.775	-124.1690
1533.215454	96.745	-124.3152
1544.325806	96.716	-124.2787
1555.516602	96.695	-124.0618
1566.788574	96.693	-123.6827
1578.142090	96.715	-123.1761
1589.578003	96.769	-122.5911
1601.096680	96.858	-121.9877
1612.698975	96.983	-121.4308
1624.385254	97.140	-120.9834
1636.156250	97.324	-120.7007
1648.012451	97.527	-120.6248
1659.954590	97.741	-120.7819
1671.983398	97.958	-121.1820
1684.099243	98.168	-121.8200
1696.302856	98.366	-122.6785
1708.594971	98.544	-123.7305
1720.976196	98.700	-124.9433
1733.447144	98.830	-126.2808
1746.008423	98.933	-127.7062
1758.660645	99.010	-129.1845
1771.404663	99.060	-130.6841
1784.240967	99.085	-132.1782
1797.170288	99.089	-133.6463
1810.193359	99.073	-135.0747
1823.310791	99.040	-136.4571
1836.523193	98.994	-137.7944
1849.831421	98.935	-139.0932
1863.236084	98.866	-140.3644
1876.737793	98.784	-141.6201
1890.337524	98.689	-142.8713
1904.035645	98.579	-144.1234
1917.833008	98.448	-145.3738
1931.730469	98.293	-146.6082
1945.728638	98.109	-147.7981
1959.828125	97.892	-148.8996
1974.029907	97.639	-149.8520
1988.334473	97.349	-150.5791
2002.742798	97.024	-150.9921
2017.255493	96.671	-150.9972
2031.873291	96.302	-150.5074
2046.597168	95.937	-149.4610
2061.427734	95.601	-147.8438
2076.365479	95.327	-145.7101
2091.411865	95.144	-143.1925
2106.566895	95.075	-140.4929
2121.832031	95.126	-137.8514
2137.207764	95.284	-135.5014
2152.694824	95.523	-133.6264
2168.294189	95.807	-132.3326
2184.006592	96.106	-131.6446
2199.832764	96.392	-131.5180
2215.773682	96.645	-131.8620
2231.830078	96.856	-132.5617
2248.002686	97.018	-133.4962
2264.292725	97.131	-134.5528
2280.700684	97.201	-135.6361
2297.227539	97.235	-136.6750
2313.874268	97.241	-137.6269
2330.641602	97.230	-138.4800
2347.530273	97.210	-139.2518
2364.541504	97.188	-139.9833
2381.676025	97.164	-140.7290
2398.934570	97.137	-141.5438
2416.318359	97.099	-142.4691
2433.827881	97.038	-143.5205
2451.464355	96.943	-144.6784
2469.228760	96.801	-145.8825
2487.121826	96.601	-147.0309
2505.144531	96.339	-147.9818
2523.297852	96.013	-148.5614
2541.582764	95.632	-148.5810
2560.000000	95.219	-147.8674
2578.550781	94.810	-146.3101
2597.236084	94.458	-143.9166
2616.056641	94.223	-140.8549
2635.013672	94.152	-137.4525
2654.108154	94.263	-134.1334
2673.340820	94.527	-131.3121
2692.713135	94.890	-129.2899
2712.225586	95.289	-128.2003
2731.879395	95.670	-128.0135
2751.675781	95.995	-128.5810
2771.615479	96.244	-129.6904
2791.699707	96.407	-131.1092
2811.929688	96.485	-132.6153
2832.305908	96.489	-134.0175
2852.830078	96.435	-135.1714
2873.502930	96.344	-135.9938
2894.325439	96.242	-136.4739
2915.298828	96.151	-136.6758
2936.424316	96.088	-136.7255
2957.702881	96.056	-136.7808
2979.135742	96.047	-136.9902
3000.723633	96.038	-137.4515
3022.468262	96.004	-138.1808
3044.370117	95.918	-139.0991
3066.430908	95.761	-140.0344
3088.651611	95.522	-140.7392
3111.033203	95.206	-140.9252
3133.577148	94.838	-140.3214
3156.284180	94.468	-138.7580
3179.156006	94.167	-136.2597
3202.193359	94.013	-133.1002
3225.397949	94.052	-129.7637
3248.770508	94.275	-126.8029
3272.312500	94.617	-124.6549
3296.024902	94.997	-123.5124
3319.909180	95.346	-123.3053
3343.966797	95.622	-123.7723
3368.198486	95.811	-124.5701
3392.605713	95.923	-125.3789
3417.189941	95.989	-125.9861
3441.952393	96.044	-126.3376
3466.894287	96.119	-126.5436
3492.016846	96.227	-126.8278
3517.321289	96.353	-127.4285
3542.809326	96.459	-128.4889
3568.481934	96.500	-129.9765
3594.340576	96.438	-131.6574
3620.386719	96.253	-133.1288
3646.621582	95.951	-133.9077
3673.046387	95.582	-133.5783
3699.662842	95.236	-131.9804
3726.472168	95.030	-129.3597
3753.475586	95.047	-126.3554
3780.675049	95.284	-123.7653
3808.071289	95.649	-122.2025
3835.666016	96.024	-121.8599
3863.460938	96.324	-122.5051
3891.457275	96.511	-123.6510
3919.656250	96.596	-124.7828
3948.059814	96.624	-125.5551
3976.668945	96.655	-125.9090
4005.485596	96.739	-126.0766
4034.510986	96.885	-126.4553
4063.746582	97.055	-127.4039
4093.194336	97.185	-129.0595
4122.855469	97.212	-131.2584
4152.730957	97.097	-133.5739
4182.823730	96.832	-135.4389
4213.133789	96.451	-136.3207
4243.664062	96.032	-135.9223
4274.415527	95.683	-134.3439
4305.389648	95.503	-132.0963
4336.588379	95.523	-129.9014
4368.013184	95.685	-128.3681
4399.665527	95.895	-127.7521
4431.547363	96.073	-127.9332
4463.660156	96.181	-128.5748
4496.005371	96.218	-129.3359
4528.585449	96.210	-130.0222
4561.401367	96.178	-130.6271
4594.455078	96.133	-131.2618
4627.748535	96.057	-132.0191
4661.283203	95.920	-132.8437
4695.060547	95.695	-133.4773
4729.083008	95.379	-133.5118
4763.352051	95.008	-132.5471
4797.869141	94.663	-130.4046
4832.636719	94.453	-127.2897
4867.655762	94.458	-123.7777
4902.928711	94.678	-120.5838
4938.457520	95.038	-118.2555
4974.243652	95.442	-116.9920
5010.289062	95.818	-116.6778
5046.595703	96.132	-117.0465
5083.165527	96.376	-117.8366
5120.000000	96.551	-118.8634
5157.101562	96.658	-120.0050
5194.472168	96.695	-121.1443
5232.113281	96.659	-122.1199
5270.027344	96.558	-122.7218
5308.216309	96.416	-122.7441
5346.681641	96.276	-122.0753
5385.426270	96.194	-120.7785
5424.451172	96.214	-119.1038
5463.758789	96.353	-117.4038
5503.351562	96.589	-115.9967
5543.230957	96.887	-115.0651
5583.399414	97.212	-114.6526
5623.859375	97.544	-114.7401
5664.611816	97.867	-115.3221
5705.660156	98.163	-116.4163
5747.005859	98.404	-118.0015
5788.650879	98.561	-119.9428
5830.597656	98.619	-121.9738
5872.848633	98.581	-123.7684
5915.405762	98.479	-125.0680
5958.271484	98.356	-125.7896
6001.447266	98.253	-126.0333
6044.936523	98.190	-125.9832
6088.740234	98.171	-125.7857
6132.861816	98.194	-125.5183
6177.303223	98.266	-125.2666
6222.066406	98.387	-125.2028
6267.154297	98.533	-125.5401
6312.568359	98.657	-126.3684
6358.312012	98.710	-127.5163
6404.386719	98.670	-128.5851
6450.795898	98.562	-129.1598
6497.541016	98.445	-129.0476
6544.625000	98.381	-128.3608
6592.049805	98.405	-127.3865
6639.818359	98.521	-126.3880
6687.933594	98.721	-125.5374
6736.396973	98.998	-125.0019
6785.211426	99.332	-125.0057
6834.379883	99.677	-125.7403
6883.904785	99.978	-127.2048
6933.788574	100.197	-129.1658
6984.033691	100.329	-131.2928
7034.642578	100.394	-133.3410
7085.618652	100.413	-135.2213
7136.963867	100.400	-136.9242
7188.681152	100.363	-138.4234
7240.773438	100.316	-139.6819
7293.243164	100.281	-140.7440
7346.092773	100.268	-141.7646
7399.325684	100.264	-142.8978
7452.944336	100.241	-144.1484
7506.951172	100.182	-145.3546
7561.350098	100.093	-146.3168
7616.142578	100.002	-146.9355
7671.332031	99.940	-147.2431
7726.921875	99.929	-147.3711
7782.914551	99.982	-147.5307
7839.312500	100.085	-147.9737
7896.119629	100.198	-148.8655
7953.337891	100.274	-150.1495
8010.971191	100.286	-151.5621
8069.021973	100.242	-152.8041
8127.493164	100.170	-153.6982
8186.388672	100.105	-154.2130
8245.710938	100.079	-154.4221
8305.461914	100.115	-154.4882
8365.647461	100.217	-154.6354
8426.267578	100.371	-155.0579
8487.328125	100.548	-155.8433
8548.831055	100.729	-156.9924
8610.779297	100.895	-158.4715
8673.176758	101.032	-160.2097
8736.026367	101.137	-162.0926
8799.331055	101.217	-164.0318
8863.094727	101.286	-166.0479
8927.320312	101.341	-168.2403
8992.010742	101.366	-170.6702
9057.170898	101.336	-173.2886
9122.802734	101.239	-175.9518
9188.910156	101.068	-178.4646
9255.497070	100.837	179.3668
9322.566406	100.573	177.6465
9390.121094	100.310	176.3159
9458.166016	100.066	175.1968
9526.704102	99.835	174.1368
9595.738281	99.597	173.1163
9665.273438	99.341	172.2227
9735.311523	99.070	171.5393
9805.857422	98.791	171.0941
9876.915039	98.508	170.9193
9948.487305	98.231	171.0740
10020.578125	97.980	171.5477
10093.191406	97.771	172.2329
10166.331055	97.606	173.0473
10240.000000	97.487	173.9618
10314.203125	97.424	174.8918
10388.944336	97.414	175.7063
10464.226562	97.448	176.3093
