1 //VoltageSource
7 //Lines
  2.82842712474619 //Vrms
  F //Inverted
  118 //position X
  64 //position Y
  0 //overall delay
  1 //Power
  8 //Ohms for Power level
0 //Subckts
27 //Lines Per Subckt
12 //Passives
20 //Lines Per Passive
 2 //PartType
 1 //RefDes
   //Part#
  0.0025 //Value
  0.16 //ESR
  300 //Rating
  127 //position X
  77 //position Y
  T  //Is Horizontal
  0 //StepMode
  1 //0short/1val/2open
  -1 //Subckt#,-1 if none
  //No Subckt equation1
  //No Subckt equation2
  F  //Is HighSpec
  0 //Specd component manuf tolerance
  0 //Search tolerance for nom values
  0 //ESR tolerance for search
  0 //Tolerance of chosen part tol
   //vendor of part number
 1 //PartType
 1 //RefDes
   //Part#
  1.2E-5 //Value
  0.05 //ESR
  250 //Rating
  136 //position X
  80 //position Y
  F  //Is Horizontal
  1 //StepMode
  1 //0short/1val/2open
  -1 //Subckt#,-1 if none
  //No Subckt equation1
  //No Subckt equation2
  F  //Is HighSpec
  0 //Specd component manuf tolerance
  0 //Search tolerance for nom values
  0 //ESR tolerance for search
  0 //Tolerance of chosen part tol
   //vendor of part number
 1 //PartType
 2 //RefDes
   //Part#
  1.8E-5 //Value
  0.05 //ESR
  250 //Rating
  133 //position X
  62 //position Y
  T  //Is Horizontal
  1 //StepMode
  1 //0short/1val/2open
  -1 //Subckt#,-1 if none
  //No Subckt equation1
  //No Subckt equation2
  F  //Is HighSpec
  0 //Specd component manuf tolerance
  0 //Search tolerance for nom values
  0 //ESR tolerance for search
  0 //Tolerance of chosen part tol
   //vendor of part number
 0 //PartType
 2 //RefDes
   //Part#
  2.5 //Value
  -1 //ESR
  10 //Rating
  148 //position X
  62 //position Y
  T  //Is Horizontal
  1 //StepMode
  1 //0short/1val/2open
  -1 //Subckt#,-1 if none
  //No Subckt equation1
  //No Subckt equation2
  F  //Is HighSpec
  0 //Specd component manuf tolerance
  0 //Search tolerance for nom values
  0 //ESR tolerance for search
  0 //Tolerance of chosen part tol
   //vendor of part number
 2 //PartType
 2 //RefDes
   //Part#
  0.00075 //Value
  0.4 //ESR
  300 //Rating
  138 //position X
  65 //position Y
  F  //Is Horizontal
  1 //StepMode
  1 //0short/1val/2open
  -1 //Subckt#,-1 if none
  //No Subckt equation1
  //No Subckt equation2
  F  //Is HighSpec
  0 //Specd component manuf tolerance
  0 //Search tolerance for nom values
  0 //ESR tolerance for search
  0 //Tolerance of chosen part tol
   //vendor of part number
 1 //PartType
 3 //RefDes
   //Part#
  6.8E-6 //Value
  0.05 //ESR
  250 //Rating
  127 //position X
  71 //position Y
  T  //Is Horizontal
  1 //StepMode
  1 //0short/1val/2open
  -1 //Subckt#,-1 if none
  //No Subckt equation1
  //No Subckt equation2
  F  //Is HighSpec
  0 //Specd component manuf tolerance
  0 //Search tolerance for nom values
  0 //ESR tolerance for search
  0 //Tolerance of chosen part tol
   //vendor of part number
 0 //PartType
 4 //RefDes
   //Part#
  5 //Value
  -1 //ESR
  10 //Rating
  133 //position X
  71 //position Y
  T  //Is Horizontal
  1 //StepMode
  1 //0short/1val/2open
  -1 //Subckt#,-1 if none
  //No Subckt equation1
  //No Subckt equation2
  F  //Is HighSpec
  0 //Specd component manuf tolerance
  0 //Search tolerance for nom values
  0 //ESR tolerance for search
  0 //Tolerance of chosen part tol
   //vendor of part number
 1 //PartType
 4 //RefDes
   //Part#
  3E-5 //Value
  0.05 //ESR
  250 //Rating
  142 //position X
  62 //position Y
  T  //Is Horizontal
  1 //StepMode
  1 //0short/1val/2open
  -1 //Subckt#,-1 if none
  //No Subckt equation1
  //No Subckt equation2
  F  //Is HighSpec
  0 //Specd component manuf tolerance
  0 //Search tolerance for nom values
  0 //ESR tolerance for search
  0 //Tolerance of chosen part tol
   //vendor of part number
 2 //PartType
 3 //RefDes
   //Part#
  0.001 //Value
  0.35 //ESR
  300 //Rating
  139 //position X
  77 //position Y
  T  //Is Horizontal
  1 //StepMode
  1 //0short/1val/2open
  -1 //Subckt#,-1 if none
  //No Subckt equation1
  //No Subckt equation2
  F  //Is HighSpec
  0 //Specd component manuf tolerance
  0 //Search tolerance for nom values
  0 //ESR tolerance for search
  0 //Tolerance of chosen part tol
   //vendor of part number
 1 //PartType
 5 //RefDes
   //Part#
  2E-5 //Value
  0.05 //ESR
  250 //Rating
  146 //position X
  80 //position Y
  F  //Is Horizontal
  1 //StepMode
  1 //0short/1val/2open
  -1 //Subckt#,-1 if none
  //No Subckt equation1
  //No Subckt equation2
  F  //Is HighSpec
  0 //Specd component manuf tolerance
  0 //Search tolerance for nom values
  0 //ESR tolerance for search
  0 //Tolerance of chosen part tol
   //vendor of part number
 0 //PartType
 3 //RefDes
   //Part#
  3 //Value
  -1 //ESR
  10 //Rating
  146 //position X
  86 //position Y
  F  //Is Horizontal
  1 //StepMode
  1 //0short/1val/2open
  -1 //Subckt#,-1 if none
  //No Subckt equation1
  //No Subckt equation2
  F  //Is HighSpec
  0 //Specd component manuf tolerance
  0 //Search tolerance for nom values
  0 //ESR tolerance for search
  0 //Tolerance of chosen part tol
   //vendor of part number
 0 //PartType
 1 //RefDes
   //Part#
  30 //Value
  -1 //ESR
  10 //Rating
  133 //position X
  58 //position Y
  T  //Is Horizontal
  1 //StepMode
  1 //0short/1val/2open
  -1 //Subckt#,-1 if none
  //No Subckt equation1
  //No Subckt equation2
  F  //Is HighSpec
  0 //Specd component manuf tolerance
  0 //Search tolerance for nom values
  0 //ESR tolerance for search
  0 //Tolerance of chosen part tol
   //vendor of part number
6 //Grounds
3 //Lines Per Ground
 121 //position X
  66 //position Y
  -1 //Subckt#,-1 if none
 151 //position X
  79 //position Y
  -1 //Subckt#,-1 if none
 151 //position X
  64 //position Y
  -1 //Subckt#,-1 if none
 136 //position X
  83 //position Y
  -1 //Subckt#,-1 if none
 138 //position X
  68 //position Y
  -1 //Subckt#,-1 if none
 146 //position X
  89 //position Y
  -1 //Subckt#,-1 if none
9 //Wires
5 //Lines Per Wire
 124 //End1 X
  62 //End1 Y
  124 //End2 X
  77 //End2 Y
  -1 //Subckt#,-1 if none
 121 //End1 X
  62 //End1 Y
  124 //End2 X
  62 //End2 Y
  -1 //Subckt#,-1 if none
 136 //End1 X
  71 //End1 Y
  136 //End2 X
  77 //End2 Y
  -1 //Subckt#,-1 if none
 130 //End1 X
  77 //End1 Y
  136 //End2 X
  77 //End2 Y
  -1 //Subckt#,-1 if none
 136 //End1 X
  62 //End1 Y
  139 //End2 X
  62 //End2 Y
  -1 //Subckt#,-1 if none
 142 //End1 X
  77 //End1 Y
  151 //End2 X
  77 //End2 Y
  -1 //Subckt#,-1 if none
 124 //End1 X
  62 //End1 Y
  130 //End2 X
  62 //End2 Y
  -1 //Subckt#,-1 if none
 130 //End1 X
  58 //End1 Y
  130 //End2 X
  62 //End2 Y
  -1 //Subckt#,-1 if none
 136 //End1 X
  58 //End1 Y
  136 //End2 X
  62 //End2 Y
  -1 //Subckt#,-1 if none
0 //Texts
6 //Lines Per Text
2 //Drivers
34 //Lines Per Driver
!Driver 0
  1 //RefDes
   //Name
   //PartNumber
  152 //position X
  63 //position Y
  F //Inverted
  F //Muted
  10 //Rating
  0 //dBGain
  0 //Delay
  0 //Xoffs
  0 //Yoffs
  0 //Zoffs
  0 //Htilt
  0 //Vtilt
  0 //dia
  sb26adc.frd //FRD filename
  sb26adc.zma //ZMA filename
  T //Phase from Hilbert transform
  345.22712 //Lower Hilbert extrapolation frequency
  15026.2960180316 //Upper Hilbert extrapolation frequency
  12 //Lower Extrapolation slope
  16.5 //Upper Extrapolation slope
  F //Invert Hilbert phase if used
  0.04 //Hilbert Delay to add
  F //get acoust info from a model
   //ACOUstic FRD filename
   //Vendor name
  6.5  //Nominal Dia.
  0  //rectang. Ht
  0  //rectang. Wt
   //
  T //Z Phase from Hilbert transform
**FRD 1 for driver 0
sb26adc.frd //frd filename
* Measurement data measured by REW V5.31.1
* Source: EXCL: Microphone (Umik-1  Gain: 18dB), MICROPHONE (Master Volume), R, volume: 0.530
* Format: 256k Log Swept Sine, 1 sweep at 0.0 dBFS with no timing reference
* Dated: 18:43:39 16/07/2024
* REW Settings:
*  C-weighting compensation: Off
*  Target level: 75.0 dB
* Note: 
* Measurement: SB26ADC 1m round
* Smoothing: 1/12 octave
* Frequency Step: 1/96 octave
* Start Frequency: 302.040 Hz
*
* Freq(Hz)	SPL(dB)	Phase(degrees)
302.039795	64.248	-23.5305
304.228485	64.356	-23.8326
306.433044	64.495	-24.1894
308.653595	64.655	-24.5835
310.890228	64.828	-25.0022
313.143066	65.010	-25.4378
315.412231	65.196	-25.8857
317.697845	65.385	-26.3432
320.000000	65.574	-26.8090
322.318848	65.764	-27.2824
324.654510	65.953	-27.7633
327.007080	66.143	-28.2513
329.376709	66.332	-28.7464
331.763519	66.520	-29.2488
334.167603	66.708	-29.7583
336.589142	66.895	-30.2751
339.028198	67.082	-30.7992
341.484924	67.269	-31.3305
343.959473	67.455	-31.8693
346.451935	67.640	-32.4155
348.962463	67.825	-32.9693
351.491211	68.010	-33.5306
354.038239	68.194	-34.0995
356.603760	68.378	-34.6762
359.187866	68.561	-35.2606
361.790680	68.743	-35.8529
364.412354	68.925	-36.4530
367.053040	69.107	-37.0612
369.712860	69.288	-37.6774
372.391968	69.468	-38.3018
375.090454	69.648	-38.9344
377.808533	69.828	-39.5753
380.546265	70.006	-40.2246
383.303864	70.185	-40.8823
386.081451	70.362	-41.5486
388.879150	70.539	-42.2235
391.697144	70.715	-42.9071
394.535522	70.891	-43.5995
397.394501	71.065	-44.3007
400.274170	71.239	-45.0109
403.174744	71.412	-45.7302
406.096313	71.584	-46.4586
409.039062	71.755	-47.1961
412.003113	71.926	-47.9430
414.988647	72.096	-48.6992
417.995850	72.265	-49.4648
421.024811	72.433	-50.2400
424.075714	72.600	-51.0247
427.148743	72.767	-51.8191
430.244049	72.933	-52.6232
433.361786	73.098	-53.4372
436.502106	73.262	-54.2610
439.665161	73.426	-55.0947
442.851166	73.589	-55.9384
446.060242	73.750	-56.7922
449.292572	73.911	-57.6560
452.548340	74.071	-58.5301
455.827698	74.230	-59.4143
459.130798	74.387	-60.3088
462.457855	74.544	-61.2136
465.809021	74.699	-62.1287
469.184448	74.854	-63.0541
472.584381	75.007	-63.9900
476.008911	75.159	-64.9362
479.458252	75.310	-65.8929
482.932617	75.459	-66.8600
486.432159	75.607	-67.8376
489.957031	75.754	-68.8255
493.507477	75.899	-69.8240
497.083618	76.043	-70.8328
500.685699	76.186	-71.8520
504.313873	76.327	-72.8816
507.968323	76.467	-73.9216
511.649292	76.605	-74.9718
515.356934	76.741	-76.0324
519.091370	76.876	-77.1031
522.852966	77.009	-78.1840
526.641724	77.141	-79.2749
530.458008	77.270	-80.3759
534.301941	77.398	-81.4867
538.173706	77.524	-82.6074
542.073547	77.648	-83.7378
546.001648	77.771	-84.8777
549.958191	77.891	-86.0272
553.943420	78.009	-87.1860
557.957520	78.125	-88.3540
562.000671	78.239	-89.5310
566.073181	78.350	-90.7170
570.175171	78.460	-91.9116
574.306885	78.567	-93.1148
578.468567	78.672	-94.3264
582.660400	78.774	-95.5461
586.882568	78.874	-96.7737
591.135376	78.972	-98.0090
595.419006	79.067	-99.2518
599.733643	79.160	-100.5018
604.079590	79.250	-101.7588
608.456970	79.338	-103.0224
612.866089	79.423	-104.2925
617.307190	79.505	-105.5686
621.780457	79.585	-106.8506
626.286133	79.662	-108.1380
630.824463	79.736	-109.4306
635.395691	79.808	-110.7280
640.000000	79.877	-112.0298
644.637695	79.943	-113.3358
649.309021	80.006	-114.6454
654.014160	80.066	-115.9583
658.753418	80.124	-117.2742
663.527039	80.179	-118.5925
668.335205	80.231	-119.9129
673.178284	80.280	-121.2350
678.056396	80.326	-122.5583
682.969849	80.369	-123.8823
687.918945	80.409	-125.2065
692.903870	80.446	-126.5306
697.924927	80.480	-127.8540
702.982422	80.510	-129.1762
708.076477	80.537	-130.4967
713.207520	80.561	-131.8150
718.375732	80.582	-133.1306
723.581360	80.599	-134.4430
728.824707	80.613	-135.7516
734.106079	80.623	-137.0559
739.425720	80.630	-138.3553
744.783936	80.634	-139.6494
750.180908	80.634	-140.9374
755.617065	80.631	-142.2189
761.092529	80.625	-143.4933
766.607727	80.615	-144.7600
772.162903	80.601	-146.0185
777.758301	80.585	-147.2679
783.394287	80.565	-148.5078
789.071045	80.541	-149.7376
794.789001	80.515	-150.9564
800.548340	80.484	-152.1636
806.349487	80.451	-153.3585
812.192627	80.414	-154.5404
818.078125	80.373	-155.7083
824.006226	80.329	-156.8614
829.977295	80.282	-157.9989
835.991699	80.231	-159.1196
842.049622	80.177	-160.2225
848.151428	80.119	-161.3066
854.297485	80.058	-162.3704
860.488098	79.994	-163.4127
866.723572	79.925	-164.4319
873.004211	79.854	-165.4263
879.330322	79.779	-166.3944
885.702332	79.701	-167.3341
892.120483	79.619	-168.2433
898.585144	79.534	-169.1198
905.096680	79.446	-169.9612
911.655396	79.355	-170.7648
918.261597	79.262	-171.5280
924.915710	79.166	-172.2479
931.618042	79.068	-172.9215
938.368896	78.969	-173.5457
945.168762	78.868	-174.1174
952.017822	78.766	-174.6336
958.916504	78.664	-175.0914
965.865234	78.564	-175.4882
972.864319	78.464	-175.8215
979.914062	78.367	-176.0896
987.014954	78.274	-176.2915
994.167236	78.186	-176.4270
1001.371399	78.104	-176.4968
1008.627747	78.029	-176.5031
1015.936646	77.963	-176.4495
1023.298584	77.907	-176.3410
1030.713867	77.863	-176.1845
1038.182739	77.832	-175.9884
1045.705933	77.814	-175.7630
1053.283447	77.812	-175.5196
1060.916016	77.824	-175.2711
1068.603882	77.852	-175.0310
1076.347412	77.895	-174.8134
1084.147095	77.953	-174.6320
1092.003296	78.025	-174.5005
1099.916382	78.110	-174.4310
1107.886841	78.207	-174.4347
1115.915039	78.313	-174.5210
1124.001343	78.427	-174.6971
1132.146362	78.547	-174.9687
1140.350342	78.671	-175.3392
1148.613770	78.797	-175.8100
1156.937134	78.923	-176.3807
1165.320801	79.047	-177.0492
1173.765137	79.167	-177.8120
1182.270752	79.282	-178.6639
1190.838013	79.390	-179.5988
1199.467285	79.489	179.3905
1208.159180	79.579	178.3122
1216.913940	79.658	177.1751
1225.732178	79.726	175.9890
1234.614380	79.781	174.7639
1243.560913	79.823	173.5107
1252.572266	79.852	172.2405
1261.648926	79.868	170.9649
1270.791382	79.870	169.6960
1280.000000	79.859	168.4459
1289.275391	79.835	167.2268
1298.618042	79.799	166.0512
1308.028320	79.752	164.9311
1317.506836	79.695	163.8779
1327.054077	79.630	162.9022
1336.670410	79.559	162.0132
1346.356567	79.485	161.2181
1356.112793	79.410	160.5218
1365.939697	79.336	159.9257
1375.837891	79.268	159.4276
1385.807739	79.208	159.0210
1395.849854	79.159	158.6946
1405.964844	79.123	158.4327
1416.152954	79.104	158.2150
1426.415039	79.102	158.0181
1436.751465	79.118	157.8162
1447.162720	79.152	157.5828
1457.649414	79.203	157.2922
1468.212158	79.268	156.9211
1478.851440	79.344	156.4502
1489.567871	79.429	155.8645
1500.361816	79.518	155.1543
1511.234131	79.608	154.3154
1522.185059	79.695	153.3485
1533.215454	79.774	152.2592
1544.325806	79.843	151.0571
1555.516602	79.898	149.7555
1566.788574	79.937	148.3707
1578.142090	79.958	146.9218
1589.578003	79.958	145.4296
1601.096680	79.937	143.9171
1612.698975	79.894	142.4086
1624.385254	79.829	140.9297
1636.156250	79.742	139.5067
1648.012451	79.635	138.1662
1659.954590	79.509	136.9348
1671.983398	79.367	135.8376
1684.099243	79.213	134.8976
1696.302856	79.051	134.1335
1708.594971	78.888	133.5582
1720.976196	78.729	133.1765
1733.447144	78.581	132.9829
1746.008423	78.451	132.9601
1758.660645	78.344	133.0782
1771.404663	78.267	133.2956
1784.240967	78.221	133.5623
1797.170288	78.208	133.8233
1810.193359	78.227	134.0247
1823.310791	78.273	134.1184
1836.523193	78.340	134.0663
1849.831421	78.424	133.8432
1863.236084	78.515	133.4369
1876.737793	78.607	132.8482
1890.337524	78.695	132.0885
1904.035645	78.772	131.1779
1917.833008	78.833	130.1430
1931.730469	78.877	129.0148
1945.728638	78.900	127.8268
1959.828125	78.902	126.6133
1974.029907	78.883	125.4084
1988.334473	78.846	124.2443
2002.742798	78.791	123.1495
2017.255493	78.724	122.1480
2031.873291	78.649	121.2569
2046.597168	78.570	120.4850
2061.427734	78.494	119.8313
2076.365479	78.425	119.2839
2091.411865	78.369	118.8203
2106.566895	78.330	118.4087
2121.832031	78.308	118.0102
2137.207764	78.305	117.5832
2152.694824	78.319	117.0871
2168.294189	78.346	116.4871
2184.006592	78.380	115.7571
2199.832764	78.416	114.8822
2215.773682	78.448	113.8592
2231.830078	78.468	112.6968
2248.002686	78.470	111.4145
2264.292725	78.449	110.0413
2280.700684	78.402	108.6146
2297.227539	78.324	107.1787
2313.874268	78.214	105.7839
2330.641602	78.074	104.4852
2347.530273	77.903	103.3405
2364.541504	77.708	102.4080
2381.676025	77.495	101.7429
2398.934570	77.275	101.3907
2416.318359	77.060	101.3793
2433.827881	76.866	101.7099
2451.464355	76.709	102.3469
2469.228760	76.603	103.2140
2487.121826	76.559	104.1972
2505.144531	76.582	105.1586
2523.297852	76.667	105.9590
2541.582764	76.804	106.4798
2560.000000	76.976	106.6396
2578.550781	77.167	106.4006
2597.236084	77.358	105.7646
2616.056641	77.535	104.7654
2635.013672	77.684	103.4590
2654.108154	77.798	101.9144
2673.340820	77.869	100.2077
2692.713135	77.896	98.4166
2712.225586	77.878	96.6176
2731.879395	77.819	94.8823
2751.675781	77.722	93.2739
2771.615479	77.596	91.8440
2791.699707	77.450	90.6278
2811.929688	77.294	89.6405
2832.305908	77.138	88.8739
2852.830078	76.991	88.2974
2873.502930	76.860	87.8620
2894.325439	76.748	87.5094
2915.298828	76.654	87.1838
2936.424316	76.574	86.8433
2957.702881	76.501	86.4684
2979.135742	76.429	86.0656
3000.723633	76.353	85.6651
3022.468262	76.270	85.3137
3044.370117	76.182	85.0648
3066.430908	76.096	84.9646
3088.651611	76.021	85.0376
3111.033203	75.970	85.2740
3133.577148	75.953	85.6219
3156.284180	75.980	85.9900
3179.156006	76.052	86.2632
3202.193359	76.162	86.3257
3225.397949	76.299	86.0866
3248.770508	76.445	85.4970
3272.312500	76.582	84.5557
3296.024902	76.693	83.3057
3319.909180	76.765	81.8242
3343.966797	76.789	80.2119
3368.198486	76.760	78.5819
3392.605713	76.682	77.0497
3417.189941	76.560	75.7227
3441.952393	76.407	74.6882
3466.894287	76.239	74.0003
3492.016846	76.074	73.6682
3517.321289	75.930	73.6508
3542.809326	75.819	73.8632
3568.481934	75.749	74.1969
3594.340576	75.716	74.5494
3620.386719	75.715	74.8509
3646.621582	75.735	75.0780
3673.046387	75.770	75.2499
3699.662842	75.817	75.4103
3726.472168	75.879	75.6017
3753.475586	75.965	75.8390
3780.675049	76.083	76.0922
3808.071289	76.240	76.2845
3835.666016	76.437	76.3101
3863.460938	76.664	76.0642
3891.457275	76.908	75.4752
3919.656250	77.150	74.5228
3948.059814	77.374	73.2399
3976.668945	77.568	71.7006
4005.485596	77.726	69.9993
4034.510986	77.850	68.2307
4063.746582	77.945	66.4697
4093.194336	78.021	64.7573
4122.855469	78.087	63.0948
4152.730957	78.152	61.4489
4182.823730	78.215	59.7680
4213.133789	78.273	58.0051
4243.664062	78.319	56.1391
4274.415527	78.341	54.1870
4305.389648	78.333	52.2036
4336.588379	78.293	50.2693
4368.013184	78.223	48.4699
4399.665527	78.134	46.8722
4431.547363	78.042	45.5010
4463.660156	77.962	44.3255
4496.005371	77.906	43.2638
4528.585449	77.877	42.2063
4561.401367	77.868	41.0523
4594.455078	77.867	39.7428
4627.748535	77.858	38.2755
4661.283203	77.828	36.6993
4695.060547	77.770	35.0960
4729.083008	77.684	33.5542
4763.352051	77.573	32.1487
4797.869141	77.446	30.9267
4832.636719	77.313	29.9062
4867.655762	77.181	29.0851
4902.928711	77.056	28.4560
4938.457520	76.945	28.0170
4974.243652	76.852	27.7703
5010.289062	76.787	27.7085
5046.595703	76.759	27.7960
5083.165527	76.779	27.9570
5120.000000	76.848	28.0847
5157.101562	76.962	28.0678
5194.472168	77.112	27.8231
5232.113281	77.284	27.3136
5270.027344	77.467	26.5440
5308.216309	77.651	25.5423
5346.681641	77.833	24.3383
5385.426270	78.008	22.9526
5424.451172	78.173	21.4000
5463.758789	78.323	19.7025
5503.351562	78.454	17.8997
5543.230957	78.566	16.0489
5583.399414	78.664	14.2085
5623.859375	78.756	12.4126
5664.611816	78.855	10.6473
5705.660156	78.970	8.8451
5747.005859	79.099	6.9065
5788.650879	79.234	4.7408
5830.597656	79.356	2.3060
5872.848633	79.447	-0.3745
5915.405762	79.493	-3.2192
5958.271484	79.486	-6.1154
6001.447266	79.429	-8.9475
6044.936523	79.327	-11.6205
6088.740234	79.190	-14.0684
6132.861816	79.031	-16.2501
6177.303223	78.859	-18.1381
6222.066406	78.686	-19.7097
6267.154297	78.526	-20.9515
6312.568359	78.395	-21.8785
6358.312012	78.312	-22.5585
6404.386719	78.290	-23.1235
6450.795898	78.332	-23.7507
6497.541016	78.430	-24.6150
6544.625000	78.561	-25.8369
6592.049805	78.701	-27.4525
6639.818359	78.826	-29.4152
6687.933594	78.922	-31.6228
6736.396973	78.981	-33.9527
6785.211426	79.006	-36.2942
6834.379883	79.006	-38.5704
6883.904785	78.992	-40.7467
6933.788574	78.974	-42.8242
