1 //VoltageSource
7 //Lines
  8 //Vrms
  F //Inverted
  115 //position X
  64 //position Y
  0 //overall delay
  8 //Power
  8 //Ohms for Power level
0 //Subckts
27 //Lines Per Subckt
6 //Passives
20 //Lines Per Passive
 2 //PartType
 1 //RefDes
   //Part#
  0.00415 //Value
  0.5 //ESR
  300 //Rating
  130 //position X
  75 //position Y
  T  //Is Horizontal
  0 //StepMode
  1 //0short/1val/2open
  -1 //Subckt#,-1 if none
  //No Subckt equation1
  //No Subckt equation2
  F  //Is HighSpec
  0 //Specd component manuf tolerance
  0 //Search tolerance for nom values
  0 //ESR tolerance for search
  0 //Tolerance of chosen part tol
   //vendor of part number
 1 //PartType
 1 //RefDes
   //Part#
  2.4E-5 //Value
  0.05 //ESR
  250 //Rating
  133 //position X
  78 //position Y
  F  //Is Horizontal
  1 //StepMode
  1 //0short/1val/2open
  -1 //Subckt#,-1 if none
  //No Subckt equation1
  //No Subckt equation2
  F  //Is HighSpec
  0 //Specd component manuf tolerance
  0 //Search tolerance for nom values
  0 //ESR tolerance for search
  0 //Tolerance of chosen part tol
   //vendor of part number
 1 //PartType
 2 //RefDes
   //Part#
  1.6E-5 //Value
  0.05 //ESR
  250 //Rating
  132 //position X
  62 //position Y
  T  //Is Horizontal
  1 //StepMode
  1 //0short/1val/2open
  -1 //Subckt#,-1 if none
  //No Subckt equation1
  //No Subckt equation2
  F  //Is HighSpec
  0 //Specd component manuf tolerance
  0 //Search tolerance for nom values
  0 //ESR tolerance for search
  0 //Tolerance of chosen part tol
   //vendor of part number
 2 //PartType
 2 //RefDes
   //Part#
  0.0004 //Value
  0.25 //ESR
  300 //Rating
  135 //position X
  65 //position Y
  F  //Is Horizontal
  1 //StepMode
  1 //0short/1val/2open
  -1 //Subckt#,-1 if none
  //No Subckt equation1
  //No Subckt equation2
  F  //Is HighSpec
  0 //Specd component manuf tolerance
  0 //Search tolerance for nom values
  0 //ESR tolerance for search
  0 //Tolerance of chosen part tol
   //vendor of part number
 0 //PartType
 1 //RefDes
   //Part#
  6.9 //Value
  -1 //ESR
  0.35 //Rating
  126 //position X
  62 //position Y
  T  //Is Horizontal
  1 //StepMode
  1 //0short/1val/2open
  -1 //Subckt#,-1 if none
  //No Subckt equation1
  //No Subckt equation2
  F  //Is HighSpec
  0 //Specd component manuf tolerance
  0 //Search tolerance for nom values
  0 //ESR tolerance for search
  0 //Tolerance of chosen part tol
   //vendor of part number
 0 //PartType
 2 //RefDes
   //Part#
  20 //Value
  -1 //ESR
  10 //Rating
  126 //position X
  58 //position Y
  T  //Is Horizontal
  1 //StepMode
  1 //0short/1val/2open
  -1 //Subckt#,-1 if none
  //No Subckt equation1
  //No Subckt equation2
  F  //Is HighSpec
  0 //Specd component manuf tolerance
  0 //Search tolerance for nom values
  0 //ESR tolerance for search
  0 //Tolerance of chosen part tol
   //vendor of part number
5 //Grounds
3 //Lines Per Ground
 118 //position X
  66 //position Y
  -1 //Subckt#,-1 if none
 148 //position X
  64 //position Y
  -1 //Subckt#,-1 if none
 148 //position X
  77 //position Y
  -1 //Subckt#,-1 if none
 133 //position X
  81 //position Y
  -1 //Subckt#,-1 if none
 135 //position X
  68 //position Y
  -1 //Subckt#,-1 if none
7 //Wires
5 //Lines Per Wire
 121 //End1 X
  62 //End1 Y
  121 //End2 X
  75 //End2 Y
  -1 //Subckt#,-1 if none
 133 //End1 X
  75 //End1 Y
  148 //End2 X
  75 //End2 Y
  -1 //Subckt#,-1 if none
 121 //End1 X
  75 //End1 Y
  127 //End2 X
  75 //End2 Y
  -1 //Subckt#,-1 if none
 118 //End1 X
  62 //End1 Y
  123 //End2 X
  62 //End2 Y
  -1 //Subckt#,-1 if none
 135 //End1 X
  62 //End1 Y
  148 //End2 X
  62 //End2 Y
  -1 //Subckt#,-1 if none
 123 //End1 X
  58 //End1 Y
  123 //End2 X
  62 //End2 Y
  -1 //Subckt#,-1 if none
 129 //End1 X
  58 //End1 Y
  129 //End2 X
  62 //End2 Y
  -1 //Subckt#,-1 if none
0 //Texts
6 //Lines Per Text
2 //Drivers
34 //Lines Per Driver
!Driver 0
  1 //RefDes
   //Name
   //PartNumber
  149 //position X
  63 //position Y
  F //Inverted
  F //Muted
  10 //Rating
  0 //dBGain
  0 //Delay
  0 //Xoffs
  0 //Yoffs
  0 //Zoffs
  0 //Htilt
  0 //Vtilt
  0 //dia
  tweeter.frd //FRD filename
  tweeter.zma //ZMA filename
  T //Phase from Hilbert transform
  417.7248233675 //Lower Hilbert extrapolation frequency
  12396.694214876 //Upper Hilbert extrapolation frequency
  12 //Lower Extrapolation slope
  10.5 //Upper Extrapolation slope
  F //Invert Hilbert phase if used
  0 //Hilbert Delay to add
  F //get acoust info from a model
   //ACOUstic FRD filename
   //Vendor name
  6.5  //Nominal Dia.
  0  //rectang. Ht
  0  //rectang. Wt
   //
  F //Z Phase from Hilbert transform
**FRD 1 for driver 0
tweeter.frd //frd filename
* Measurement data measured by REW V5.20.9
* Source: Microphone (Umik-1  Gain: 18dB), MICROPHONE (Master Volume), R, volume: 1.000
* Format: 512k Log Swept Sine, 1 sweep at -10.0 dBFS with no timing reference
* Dated: 14:48:01 21/08/2022
* REW Settings:
*  C-weighting compensation: Off
*  Target level: 75.0 dB
* Note: 
* Measurement: T Far Field
* Smoothing: 1/24 octave
* Frequency Step: 1/96 octave
* Start Frequency: 302.040 Hz
*
* Freq(Hz)	SPL(dB)	Phase(degrees)
302.039795	56.204	161.0097
304.228485	56.324	161.0863
306.433044	56.490	161.1852
308.653595	56.678	161.2859
310.890228	56.876	161.3761
313.143066	57.078	161.4499
315.412231	57.282	161.5050
317.697845	57.487	161.5403
320.000000	57.693	161.5553
322.318848	57.900	161.5500
324.654510	58.107	161.5240
327.007080	58.315	161.4772
329.376709	58.524	161.4095
331.763519	58.733	161.3209
334.167603	58.942	161.2113
336.589142	59.151	161.0807
339.028198	59.360	160.9293
341.484924	59.569	160.7569
343.959473	59.778	160.5639
346.451935	59.987	160.3501
348.962463	60.195	160.1160
351.491211	60.402	159.8615
354.038239	60.609	159.5869
356.603760	60.815	159.2924
359.187866	61.020	158.9783
361.790680	61.225	158.6447
364.412354	61.428	158.2920
367.053040	61.630	157.9205
369.712860	61.831	157.5303
372.391968	62.031	157.1219
375.090454	62.229	156.6954
377.808533	62.426	156.2514
380.546265	62.622	155.7901
383.303864	62.816	155.3118
386.081451	63.008	154.8169
388.879150	63.198	154.3058
391.697144	63.387	153.7788
394.535522	63.573	153.2364
397.394501	63.757	152.6788
400.274170	63.939	152.1066
403.174744	64.119	151.5201
406.096313	64.297	150.9197
409.039062	64.472	150.3058
412.003113	64.645	149.6789
414.988647	64.815	149.0395
417.995850	64.984	148.3878
421.024811	65.150	147.7245
424.075714	65.313	147.0499
427.148743	65.475	146.3646
430.244049	65.633	145.6690
433.361786	65.790	144.9637
436.502106	65.943	144.2490
439.665161	66.095	143.5256
442.851166	66.243	142.7940
446.060242	66.389	142.0547
449.292572	66.532	141.3082
452.548340	66.673	140.5552
455.827698	66.811	139.7962
459.130798	66.945	139.0319
462.457855	67.077	138.2628
465.809021	67.206	137.4896
469.184448	67.333	136.7130
472.584381	67.456	135.9335
476.008911	67.576	135.1519
479.458252	67.694	134.3690
482.932617	67.808	133.5854
486.432159	67.919	132.8018
489.957031	68.028	132.0191
493.507477	68.133	131.2381
497.083618	68.236	130.4595
500.685699	68.335	129.6842
504.313873	68.432	128.9129
507.968323	68.526	128.1467
511.649292	68.617	127.3863
515.356934	68.706	126.6326
519.091370	68.791	125.8866
522.852966	68.874	125.1491
526.641724	68.955	124.4211
530.458008	69.033	123.7034
534.301941	69.108	122.9970
538.173706	69.182	122.3028
542.073547	69.253	121.6216
546.001648	69.322	120.9543
549.958191	69.389	120.3018
553.943420	69.454	119.6648
557.957520	69.518	119.0441
562.000671	69.581	118.4403
566.073181	69.642	117.8541
570.175171	69.702	117.2858
574.306885	69.761	116.7360
578.468567	69.820	116.2050
582.660400	69.879	115.6927
586.882568	69.938	115.1994
591.135376	69.997	114.7248
595.419006	70.057	114.2686
599.733643	70.117	113.8303
604.079590	70.180	113.4091
608.456970	70.243	113.0041
612.866089	70.309	112.6141
617.307190	70.377	112.2378
621.780457	70.447	111.8734
626.286133	70.520	111.5193
630.824463	70.595	111.1732
635.395691	70.674	110.8330
640.000000	70.756	110.4961
644.637695	70.842	110.1600
649.309021	70.931	109.8218
654.014160	71.024	109.4787
658.753418	71.120	109.1277
663.527039	71.221	108.7659
668.335205	71.325	108.3901
673.178284	71.432	107.9975
678.056396	71.543	107.5850
682.969849	71.656	107.1499
687.918945	71.772	106.6896
692.903870	71.891	106.2015
697.924927	72.010	105.6833
702.982422	72.132	105.1330
708.076477	72.254	104.5488
713.207520	72.376	103.9292
718.375732	72.498	103.2727
723.581360	72.620	102.5786
728.824707	72.741	101.8460
734.106079	72.860	101.0746
739.425720	72.977	100.2643
744.783936	73.091	99.4151
750.180908	73.202	98.5276
755.617065	73.310	97.6023
761.092529	73.413	96.6403
766.607727	73.512	95.6428
772.162903	73.605	94.6111
777.758301	73.693	93.5471
783.394287	73.775	92.4525
789.071045	73.850	91.3295
794.789001	73.918	90.1805
800.548340	73.979	89.0080
806.349487	74.032	87.8148
812.192627	74.077	86.6040
818.078125	74.113	85.3788
824.006226	74.141	84.1428
829.977295	74.159	82.8997
835.991699	74.168	81.6534
842.049622	74.167	80.4084
848.151428	74.156	79.1693
854.297485	74.134	77.9409
860.488098	74.102	76.7285
866.723572	74.060	75.5378
873.004211	74.006	74.3747
879.330322	73.942	73.2456
885.702332	73.868	72.1573
892.120483	73.783	71.1168
898.585144	73.687	70.1317
905.096680	73.582	69.2099
911.655396	73.468	68.3594
918.261597	73.345	67.5885
924.915710	73.214	66.9058
931.618042	73.076	66.3193
938.368896	72.933	65.8371
945.168762	72.786	65.4664
952.017822	72.637	65.2135
958.916504	72.488	65.0834
965.865234	72.341	65.0790
972.864319	72.199	65.2009
979.914062	72.065	65.4469
987.014954	71.941	65.8115
994.167236	71.831	66.2857
1001.371399	71.736	66.8566
1008.627747	71.660	67.5078
1015.936646	71.604	68.2199
1023.298584	71.570	68.9708
1030.713867	71.558	69.7372
1038.182739	71.568	70.4948
1045.705933	71.599	71.2206
1053.283447	71.650	71.8929
1060.916016	71.718	72.4932
1068.603882	71.801	73.0061
1076.347412	71.896	73.4204
1084.147095	71.999	73.7289
1092.003296	72.107	73.9282
1099.916382	72.218	74.0188
1107.886841	72.328	74.0045
1115.915039	72.436	73.8917
1124.001343	72.539	73.6893
1132.146362	72.635	73.4076
1140.350342	72.723	73.0586
1148.613770	72.801	72.6549
1156.937134	72.870	72.2095
1165.320801	72.928	71.7357
1173.765137	72.976	71.2465
1182.270752	73.015	70.7542
1190.838013	73.043	70.2704
1199.467285	73.064	69.8056
1208.159180	73.077	69.3686
1216.913940	73.084	68.9665
1225.732178	73.086	68.6043
1234.614380	73.086	68.2847
1243.560913	73.085	68.0079
1252.572266	73.084	67.7715
1261.648926	73.085	67.5703
1270.791382	73.089	67.3970
1280.000000	73.098	67.2421
1289.275391	73.111	67.0947
1298.618042	73.130	66.9431
1308.028320	73.153	66.7753
1317.506836	73.179	66.5802
1327.054077	73.207	66.3485
1336.670410	73.236	66.0728
1346.356567	73.262	65.7488
1356.112793	73.285	65.3758
1365.939697	73.301	64.9568
1375.837891	73.308	64.4989
1385.807739	73.304	64.0131
1395.849854	73.287	63.5146
1405.964844	73.255	63.0227
1416.152954	73.207	62.5601
1426.415039	73.144	62.1529
1436.751465	73.064	61.8299
1447.162720	72.969	61.6216
1457.649414	72.863	61.5588
1468.212158	72.748	61.6708
1478.851440	72.631	61.9829
1489.567871	72.517	62.5129
1500.361816	72.416	63.2677
1511.234131	72.337	64.2395
1522.185059	72.288	65.4031
1533.215454	72.280	66.7144
1544.325806	72.320	68.1121
1555.516602	72.411	69.5215
1566.788574	72.554	70.8610
1578.142090	72.745	72.0502
1589.578003	72.977	73.0180
1601.096680	73.241	73.7079
1612.698975	73.524	74.0820
1624.385254	73.816	74.1216
1636.156250	74.107	73.8256
1648.012451	74.386	73.2074
1659.954590	74.646	72.2917
1671.983398	74.879	71.1109
1684.099243	75.081	69.7026
1696.302856	75.247	68.1076
1708.594971	75.375	66.3687
1720.976196	75.460	64.5300
1733.447144	75.503	62.6366
1746.008423	75.501	60.7350
1758.660645	75.455	58.8732
1771.404663	75.365	57.1013
1784.240967	75.233	55.4712
1797.170288	75.060	54.0370
1810.193359	74.851	52.8536
1823.310791	74.612	51.9750
1836.523193	74.351	51.4510
1849.831421	74.077	51.3216
1863.236084	73.805	51.6107
1876.737793	73.550	52.3183
1890.337524	73.329	53.4140
1904.035645	73.159	54.8326
1917.833008	73.055	56.4764
1931.730469	73.025	58.2232
1945.728638	73.071	59.9405
1959.828125	73.186	61.5020
1974.029907	73.357	62.8027
1988.334473	73.570	63.7686
2002.742798	73.806	64.3601
2017.255493	74.050	64.5690
2031.873291	74.289	64.4124
2046.597168	74.511	63.9246
2061.427734	74.709	63.1506
2076.365479	74.875	62.1402
2091.411865	75.007	60.9444
2106.566895	75.102	59.6133
2121.832031	75.157	58.1951
2137.207764	75.173	56.7366
2152.694824	75.147	55.2834
2168.294189	75.082	53.8813
2184.006592	74.976	52.5774
2199.832764	74.833	51.4210
2215.773682	74.653	50.4644
2231.830078	74.442	49.7632
2248.002686	74.204	49.3740
2264.292725	73.948	49.3513
2280.700684	73.685	49.7408
2297.227539	73.430	50.5702
2313.874268	73.202	51.8375
2330.641602	73.023	53.5006
2347.530273	72.912	55.4705
2364.541504	72.887	57.6138
2381.676025	72.953	59.7659
2398.934570	73.109	61.7531
2416.318359	73.339	63.4182
2433.827881	73.623	64.6422
2451.464355	73.934	65.3555
2469.228760	74.251	65.5398
2487.121826	74.551	65.2204
2505.144531	74.818	64.4558
2523.297852	75.041	63.3268
2541.582764	75.209	61.9277
2560.000000	75.317	60.3609
2578.550781	75.363	58.7330
2597.236084	75.347	57.1537
2616.056641	75.272	55.7330
2635.013672	75.144	54.5788
2654.108154	74.975	53.7900
2673.340820	74.781	53.4466
2692.713135	74.582	53.5950
2712.225586	74.405	54.2318
2731.879395	74.278	55.2905
2751.675781	74.225	56.6383
2771.615479	74.262	58.0883
2791.699707	74.391	59.4276
2811.929688	74.597	60.4534
2832.305908	74.858	61.0072
2852.830078	75.142	60.9948
2873.502930	75.419	60.3909
2894.325439	75.665	59.2308
2915.298828	75.858	57.5959
2936.424316	75.982	55.6001
2957.702881	76.026	53.3800
2979.135742	75.983	51.0893
3000.723633	75.850	48.8980
3022.468262	75.627	46.9909
3044.370117	75.322	45.5639
3066.430908	74.952	44.8099
3088.651611	74.544	44.8905
3111.033203	74.142	45.8909
3133.577148	73.801	47.7681
3156.284180	73.583	50.3155
3179.156006	73.534	53.1747
3202.193359	73.662	55.9061
3225.397949	73.938	58.0971
3248.770508	74.302	59.4594
3272.312500	74.692	59.8737
3296.024902	75.054	59.3780
3319.909180	75.352	58.1224
3343.966797	75.562	56.3185
3368.198486	75.671	54.2033
3392.605713	75.677	52.0172
3417.189941	75.583	49.9940
3441.952393	75.400	48.3528
3466.894287	75.148	47.2848
3492.016846	74.856	46.9299
3517.321289	74.566	47.3440
3542.809326	74.326	48.4659
3568.481934	74.183	50.1021
3594.340576	74.168	51.9471
3620.386719	74.285	53.6434
3646.621582	74.507	54.8629
3673.046387	74.789	55.3767
3699.662842	75.077	55.0900
3726.472168	75.327	54.0389
3753.475586	75.503	52.3651
3780.675049	75.579	50.2865
3808.071289	75.541	48.0770
3835.666016	75.385	46.0514
3863.460938	75.118	44.5489
3891.457275	74.767	43.8942
3919.656250	74.385	44.3227
3948.059814	74.051	45.8738
3976.668945	73.862	48.2967
4005.485596	73.893	51.0466
4034.510986	74.149	53.4185
4063.746582	74.562	54.7724
4093.194336	75.024	54.7280
4122.855469	75.434	53.2339
4152.730957	75.718	50.5186
4182.823730	75.828	46.9979
4213.133789	75.738	43.2037
4243.664062	75.437	39.7499
4274.415527	74.934	37.3080
4305.389648	74.269	36.5290
4336.588379	73.534	37.8575
4368.013184	72.893	41.2568
4399.665527	72.548	46.0223
4431.547363	72.612	50.9272
4463.660156	73.011	54.7217
4496.005371	73.547	56.6585
4528.585449	74.042	56.6845
4561.401367	74.389	55.2806
4594.455078	74.547	53.1786
4627.748535	74.515	51.1392
4661.283203	74.328	49.8174
4695.060547	74.052	49.6620
4729.083008	73.786	50.8151
4763.352051	73.647	53.0435
4797.869141	73.720	55.7774
4832.636719	74.020	58.2905
4867.655762	74.482	59.9487
4902.928711	75.007	60.3921
4938.457520	75.509	59.5734
4974.243652	75.926	57.6824
5010.289062	76.224	55.0392
5046.595703	76.390	52.0115
5083.165527	76.426	48.9651
5120.000000	76.348	46.2281
5157.101562	76.189	44.0455
5194.472168	75.996	42.5213
5232.113281	75.822	41.5667
5270.027344	75.712	40.8969
5308.216309	75.675	40.1081
5346.681641	75.681	38.8222
5385.426270	75.666	36.8408
5424.451172	75.562	34.2442
5463.758789	75.308	31.4146
5503.351562	74.871	28.9896
5543.230957	74.252	27.7433
5583.399414	73.511	28.3554
5623.859375	72.784	31.0713
5664.611816	72.271	35.4111
5705.660156	72.127	40.2289
5747.005859	72.324	44.2372
5788.650879	72.681	46.6585
5830.597656	73.017	47.5148
5872.848633	73.236	47.4350
5915.405762	73.331	47.2274
5958.271484	73.366	47.4835
6001.447266	73.435	48.3407
6044.936523	73.620	49.4626
6088.740234	73.934	50.2406
6132.861816	74.321	50.1135
6177.303223	74.687	48.8202
6222.066406	74.950	46.4737
6267.154297	75.059	43.4813
6312.568359	74.991	40.4101
6358.312012	74.759	37.8517
6404.386719	74.407	36.2836
6450.795898	74.016	35.9148
6497.541016	73.683	36.5642
6544.625000	73.486	37.6872
6592.049805	73.425	38.6155
6639.818359	73.428	38.9105
6687.933594	73.397	38.6059
6736.396973	73.268	38.1818
6785.211426	73.047	38.2810
6834.379883	72.809	39.3096
6883.904785	72.669	41.1385
6933.788574	72.698	43.1282
6984.033691	72.867	44.5195
7034.642578	73.068	44.9221
7085.618652	73.194	44.5347
7136.963867	73.201	43.9788
7188.681152	73.117	43.9081
7240.773438	73.028	44.6387
7293.243164	73.029	45.9951
7346.092773	73.171	47.4484
7399.325684	73.428	48.4438
7452.944336	73.731	48.6827
7506.951172	74.015	48.1921
7561.350098	74.245	47.2086
7616.142578	74.420	46.0045
7671.332031	74.560	44.7503
7726.921875	74.689	43.4472
7782.914551	74.814	41.9402
7839.312500	74.919	40.0254
7896.119629	74.956	37.6248
7953.337891	74.871	34.9398
8010.971191	74.631	32.4726
8069.021973	74.245	30.8537
8127.493164	73.777	30.5265
8186.388672	73.332	31.4766
8245.710938	73.004	33.2489
8305.461914	72.814	35.2987
8365.647461	72.728	37.3795
8426.267578	72.723	39.5801
8487.328125	72.830	41.9898
8548.831055	73.096	44.3569
8610.779297	73.512	46.1133
8673.176758	73.993	46.7445
8736.026367	74.431	46.1460
8799.331055	74.756	44.6688
8863.094727	74.956	42.8770
8927.320312	75.061	41.2284
8992.010742	75.121	39.8776
9057.170898	75.166	38.7040
9122.802734	75.189	37.5359
9188.910156	75.160	36.3968
9255.497070	75.063	35.5646
9322.566406	74.926	35.3743
9390.121094	74.815	35.9226
9458.166016	74.793	36.9463
9526.704102	74.872	38.0139
9595.738281	75.018	38.8513
9665.273438	75.192	39.4772
9735.311523	75.394	40.0333
9805.857422	75.646	40.5243
9876.915039	75.956	40.7462
9948.487305	76.295	40.4524
10020.578125	76.614	39.5659
10093.191406	76.878	38.2365
10166.331055	77.075	36.7266
10240.000000	77.217	35.2603
10314.203125	77.322	33.9639
10388.944336	77.404	32.9109
10464.226562	77.487	32.1675
10540.054688	77.604	31.7415
10616.432617	77.793	31.4703
10693.363281	78.063	31.0061
10770.852539	78.378	29.9891
10848.902344	78.674	28.2871
10927.517578	78.903	26.0751
11006.703125	79.055	23.6782
11086.461914	79.146	21.3413
11166.798828	79.198	19.1444
11247.718750	79.222	17.0990
11329.223633	79.228	15.2444
11411.320312	79.235	13.5988
11494.011719	79.266	12.0460
11577.301758	79.324	10.3429
11661.195312	79.375	8.2927
11745.697266	79.370	5.9377
11830.811523	79.278	3.5839
11916.542969	79.105	1.6120
12002.894531	78.894	0.2468
12089.873047	78.691	-0.4957
12177.480469	78.542	-0.7111
12265.723633	78.493	-0.6001
12354.606445	78.574	-0.5804
12444.132812	78.760	-1.2291
12534.308594	78.960	-2.9470
12625.136719	79.073	-5.6579
12716.624023	79.037	-8.8641
12808.773438	78.847	-11.9654
12901.591797	78.529	-14.5076
12995.082031	78.123	-16.2079
13089.250000	77.683	-16.9227
13184.099609	77.277	-16.7176
13279.636719	76.971	-15.9210
13375.867188	76.789	-14.9845
13472.793945	76.705	-14.2424
13570.422852	76.681	-13.8161
13668.759766	76.687	-13.7079
13767.809570	76.705	-13.9089
13867.577148	76.720	-14.4081
13968.067383	76.716	-15.1706
14069.285156	76.681	-16.1455
14171.237305	76.600	-17.2454
14273.927734	76.463	-18.2990
14377.362305	76.277	-19.0913
14481.546875	76.072	-19.4951
14586.486328	75.881	-19.5339
14692.185547	75.729	-19.3235
14798.651367	75.635	-19.0270
14905.888672	75.599	-18.8554
15013.902344	75.603	-19.0055
15122.700195	75.613	-19.5543
15232.285156	75.597	-20.4411
15342.664062	75.537	-21.5343
15453.843750	75.421	-22.6649
15565.829102	75.248	-23.6189
15678.625000	75.036	-24.1851
